      Artinite
      Akao M, Iwai S
      Acta Crystallographica B33 (1977) 3951-3953
      The hydrogen bonding of artinite
      Note: anisotropic displacement parameters obtained from ICSD
      _database_code_amcsd 0009620
      CELL PARAMETERS:  16.5600  3.1530  6.2310   90.000   99.100   90.000
      SPACE GROUP: C2/m      
      X-RAY WAVELENGTH:     1.790290
      Cell Volume:    321.249
      Density (g/cm3):      2.033
      MAX. ABS. INTENSITY / VOLUME**2:      3.361006055    
      RIR:      0.772
      RIR based on corundum from Acta Crystallographica A38 (1982) 733-739
               2-THETA      INTENSITY    D-SPACING   H   K   L   Multiplicity
                12.57         42.91        8.1758    2   0   0         2
                16.73         21.24        6.1526    0   0   1         2
                19.31        100.00        5.3384   -2   0   1         2
                22.54          1.42        4.5803    2   0   1         2
                25.30         10.12        4.0879    4   0   0         2
                28.13         63.87        3.6840   -4   0   1         2
                32.69          7.89        3.1809    4   0   1         2
                33.83          1.76        3.0763    0   0   2         2
                34.22         21.44        3.0422   -2   0   2         2
                37.30         13.59        2.7994   -1   1   1         4
                38.14         29.49        2.7399    2   0   2         2
                38.24         10.75        2.7329    1   1   1         4
                38.29         62.15        2.7292    3   1   0         4
                38.35          4.79        2.7253    6   0   0         2
                39.19         27.00        2.6692   -4   0   2         2
                39.46          1.67        2.6519   -6   0   1         2
                43.33          1.20        2.4246    3   1   1         4
                44.63          5.80        2.3575    6   0   1         2
                46.02          9.42        2.2902    4   0   2         2
                46.45         21.87        2.2698    5   1   0         4
                47.52          1.87        2.2218   -6   0   2         2
                47.66          2.16        2.2156   -1   1   2         4
                47.79         65.03        2.2098   -5   1   1         4
                49.78          5.63        2.1269   -3   1   2         4
                51.58          5.32        2.0575    5   1   1         4
                51.76         11.07        2.0509    0   0   3         2
                55.25          1.24        1.9305   -5   1   2         4
                55.61         27.91        1.9189    2   0   3         2
                56.33          1.67        1.8965    6   0   2         2
                57.45         33.71        1.8625   -7   1   1         4
                58.15          3.44        1.8420   -8   0   2         2
================================================================================
       XPOW Copyright 1993 Bob Downs, Ranjini Swaminathan and Kurt Bartelmehs
  For reference, see Downs et al. (1993) American Mineralogist 78, 1104-1107.