      Augite
      Gualtieri A F
      Journal of Applied Crystallography 33 (2000) 267-278
      Accuracy of XRPD QPA using the combined Rietveld-RIR method
      Locality: Napoli, Italy
      _database_code_amcsd 0012864
      CELL PARAMETERS:   9.7504  8.9015  5.2744   90.000  106.016   90.000
      SPACE GROUP: C2/c      
      X-RAY WAVELENGTH:     1.790290
      Cell Volume:    440.016
      Density (g/cm3):      3.384
      MAX. ABS. INTENSITY / VOLUME**2:      8.306379329    
      RIR:      1.146
      RIR based on corundum from Acta Crystallographica A38 (1982) 733-739
               2-THETA      INTENSITY    D-SPACING   H   K   L   Multiplicity
                15.94          2.38        6.4542    1   1   0         4
                22.03          3.66        4.6860    2   0   0         2
                23.21          6.43        4.4507    0   2   0         2
                31.05          5.15        3.3447    0   2   1         4
                32.21         35.05        3.2271    2   2   0         4
                34.82        100.00        2.9921   -2   2   1         4
                35.36         41.54        2.9477    3   1   0         4
                36.00         25.74        2.8970   -3   1   1         4
                40.89         35.67        2.5627   -1   3   1         4
                41.36         35.44        2.5349    0   0   2         2
                41.71         37.79        2.5145    2   2   1         4
                44.92          1.06        2.3430    4   0   0         2
                45.78         10.48        2.3012    3   1   1         4
                47.55          8.34        2.2202    1   1   2         4
                47.84          1.08        2.2076   -2   2   2         4
                47.96          4.65        2.2027    0   2   2         4
                49.17          9.38        2.1514    3   3   0         4
                49.67         18.06        2.1314   -3   3   1         4
                50.26         10.93        2.1077   -4   2   1         4
                52.12         14.99        2.0377    0   4   1         4
                52.59         12.18        2.0208   -4   0   2         2
                52.90          8.85        2.0096    2   0   2         2
                54.02          4.19        1.9712   -1   3   2         4
                54.67          1.29        1.9494   -2   4   1         4
                58.42          5.30        1.8342    5   1   0         4
                58.52          3.40        1.8315    2   2   2         4
                59.13          2.56        1.8142    1   3   2         4
                59.75          1.39        1.7972    2   4   1         4
================================================================================
       XPOW Copyright 1993 Bob Downs, Ranjini Swaminathan and Kurt Bartelmehs
  For reference, see Downs et al. (1993) American Mineralogist 78, 1104-1107.