      Bearthite
      Chopin C, Brunet F, Gebert W, Medenbach O, Tillmanns E
      Schweizerische Mineralogische und Petrographische Mitteilungen 73 (1993) 1-9
      Bearthite, Ca2Al[PO4]2(OH), a new mineral from high-pressure terranes of the
      western Alps
      Locality: Dora Maira massif, western Alps, Italy
      _database_code_amcsd 0015407
      CELL PARAMETERS:   7.2310  5.7340  8.2630   90.000  112.570   90.000
      SPACE GROUP: P2_1/m    
      X-RAY WAVELENGTH:     1.790290
      Cell Volume:    316.365
      Density (g/cm3):      3.286
      MAX. ABS. INTENSITY / VOLUME**2:      7.553919315    
      RIR:      1.073
      RIR based on corundum from Acta Crystallographica A38 (1982) 733-739
               2-THETA      INTENSITY    D-SPACING   H   K   L   Multiplicity
                15.41          4.63        6.6772    1   0   0         2
                16.12          3.98        6.3837   -1   0   1         2
                22.52          5.00        4.5839    0   1   1         4
                23.75          9.97        4.3501    1   1   0         4
                24.23          2.11        4.2658   -1   1   1         4
                25.55          2.76        4.0488   -1   0   2         2
                27.14          2.90        3.8151    0   0   2         2
                28.72          2.22        3.6094   -2   0   1         2
                30.27         12.04        3.4282    1   1   1         4
                31.10         13.53        3.3386    2   0   0         2
                31.41          3.01        3.3074   -1   1   2         4
                32.74          2.39        3.1763    0   1   2         4
                34.08        100.00        3.0546   -2   1   1         4
                36.33          2.72        2.8716    1   0   2         2
                36.39         43.24        2.8670    0   2   0         2
                37.44         11.27        2.7889   -2   1   2         4
                37.93         37.73        2.7543   -1   0   3         2
                38.70          8.83        2.7015    2   0   1         2
                38.97          9.17        2.6838    0   2   1         4
                39.73          5.43        2.6344    1   2   0         4
                40.03         11.76        2.6153   -1   2   1         4
                40.81         62.88        2.5676    1   1   2         4
                41.12          1.83        2.5490   -2   0   3         2
                41.21          1.53        2.5434    0   0   3         2
                42.27          1.39        2.4827   -1   1   3         4
                42.97         15.97        2.4438    2   1   1         4
                44.16         14.90        2.3814    1   2   1         4
                44.99          1.64        2.3398   -1   2   2         4
                45.20         12.31        2.3292   -2   1   3         4
                45.29          1.29        2.3249    0   1   3         4
                45.98          2.59        2.2920    0   2   2         4
                47.43          2.28        2.2257    3   0   0         2
                47.73          3.53        2.2127   -3   1   1         4
                48.51          1.34        2.1792   -3   1   2         4
                48.60         23.80        2.1751    2   2   0         4
                49.49          3.31        2.1384    2   0   2         2
                49.63          4.66        2.1329   -2   2   2         4
                49.75          2.55        2.1279   -3   0   3         2
                49.92          5.56        2.1213    1   0   3         2
                51.11          2.24        2.0749    3   1   0         4
                52.49         10.12        2.0244   -2   0   4         2
                53.57         29.33        1.9862   -1   2   3         4
                54.79          5.39        1.9454    3   0   1         2
                55.15          4.02        1.9338   -1   1   4         4
                55.97          2.42        1.9075    0   0   4         2
                56.06          2.83        1.9050   -2   2   3         4
                58.23          1.67        1.8396   -3  -2   1         4
================================================================================
       XPOW Copyright 1993 Bob Downs, Ranjini Swaminathan and Kurt Bartelmehs
  For reference, see Downs et al. (1993) American Mineralogist 78, 1104-1107.