      Bultfonteinite
      Biagioni C, Bonaccorsi E, Merlino S
      Atti della Societa Toscana di Scienze Naturali, Memorie, Serie A 115 (2010) 9-15
      Crystal structure of bultfonteinite, Ca4[SiO3(OH)]2F2*2H2O, from N'chwaning II mine
      (Kalahari Manganese Field, Republic of South Africa)
      Locality: N'chwaning II mine, South Africa
      _database_code_amcsd 0018795
      CELL PARAMETERS:  10.9990  8.1760  5.6678   94.240   89.000   90.180
      SPACE GROUP: P-1       
      X-RAY WAVELENGTH:     1.790290
      Cell Volume:    508.220
      Density (g/cm3):      2.554
      MAX. ABS. INTENSITY / VOLUME**2:      4.024495940    
      RIR:      0.736
      RIR based on corundum from Acta Crystallographica A38 (1982) 733-739
               2-THETA      INTENSITY    D-SPACING   H   K   L   Multiplicity
                12.61         80.95        8.1536    0   1   0         2
                15.70         27.90        6.5556   -1   1   0         2
                15.72         27.99        6.5440    1   1   0         2
                18.74          9.88        5.4987    2   0   0         2
                22.63          2.97        4.5628   -2   1   0         2
                22.67          3.08        4.5549    2   1   0         2
                24.97          1.64        4.1401   -1   1   1         2
                25.37         13.47        4.0768    0   2   0         2
                26.03          4.24        3.9755    2   0   1         2
                26.49          4.65        3.9075   -2   0   1         2
                27.07          3.49        3.8249   -1   2   0         2
                27.10          3.16        3.8203    1   2   0         2
                28.39         11.84        3.6509    2  -1   1         2
                28.84         11.25        3.5941   -2  -1   1         2
                29.63         44.65        3.5006    2   1   1         2
                30.01         40.67        3.4573   -2   1   1         2
                31.04          6.42        3.3457   -3   1   0         2
                31.08          5.95        3.3411    3   1   0         2
                31.70         11.62        3.2778   -2   2   0         2
                31.75         11.42        3.2720    2   2   0         2
                33.57          3.74        3.1000    3   0   1         2
                34.12          3.55        3.0515   -3   0   1         2
                35.46         20.10        2.9390    3  -1   1         2
                35.64        100.00        2.9253    2  -2   1         2
                36.03         16.81        2.8946   -3  -1   1         2
                36.04         95.86        2.8938   -2  -2   1         2
                36.51          3.81        2.8579    3   1   1         2
                36.94         39.00        2.8257    0   0   2         2
                36.98          2.91        2.8226   -3   1   1         2
                37.66         55.79        2.7733    2   2   1         2
                37.94         56.37        2.7533   -2   2   1         2
                38.00          3.73        2.7493    4   0   0         2
                38.02          2.03        2.7483    1   0   2         2
                38.31          6.41        2.7284   -3   2   0         2
                38.35          1.62        2.7255   -1   0   2         2
                38.38          5.96        2.7233    3   2   0         2
                39.28          2.34        2.6633    1  -1   2         2
                39.61          1.41        2.6418   -1  -1   2         2
                39.65          1.24        2.6396   -1   3   0         2
                39.68          1.44        2.6373    1   3   0         2
                40.10          4.00        2.6109    0   1   2         2
                42.15          5.64        2.4893    4   0   1         2
                42.76          4.29        2.4557   -4   0   1         2
                43.72          3.41        2.4039    4  -1   1         2
                44.36          3.87        2.3714   -4  -1   1         2
                44.59          1.56        2.3593    1  -2   2         2
                44.61          3.58        2.3583    4   1   1         2
                44.91          1.46        2.3438   -1  -2   2         2
                45.15          3.13        2.3318   -4   1   1         2
                46.20          1.08        2.2814   -4   2   0         2
                46.29          1.26        2.2775    4   2   0         2
                47.80          1.13        2.2096    3  -1   2         2
                47.88         11.58        2.2061    1   2   2         2
                48.13         12.74        2.1951   -1   2   2         2
                48.36          2.84        2.1852   -3   3   0         2
                48.46          2.87        2.1813    3   3   0         2
                49.84          7.87        2.1245   -5   1   0         2
                49.89          7.94        2.1226    5   1   0         2
                50.76          1.98        2.0885    2   2   2         2
                51.24          1.28        2.0701   -2   2   2         2
                51.26          1.00        2.0694   -3  -3   1         2
                52.10         13.71        2.0384    0   4   0         2
                52.18          9.19        2.0354    0  -3   2         2
                52.99          3.87        2.0064    1  -3   2         2
                53.11          1.45        2.0023    3   3   1         2
                53.28          4.58        1.9965   -1  -3   2         2
                53.41          1.35        1.9920   -3   3   1         2
                53.53         29.58        1.9878    4   0   2         2
                53.60          2.06        1.9854    5   1   1         2
                54.18          2.09        1.9655   -5   1   1         2
                54.49         13.31        1.9553    4  -1   2         2
                54.54         28.45        1.9537   -4   0   2         2
                55.04          3.61        1.9372   -5   2   0         2
                55.07          4.19        1.9364    1  -4   1         2
                55.12         23.86        1.9346   -4   3   0         2
                55.14          3.74        1.9342    5   2   0         2
                55.23          4.43        1.9312   -1  -4   1         2
                55.23         24.32        1.9311    4   3   0         2
                55.52         12.03        1.9217   -4  -1   2         2
                55.66          2.10        1.9175    2  -3   2         2
                55.96          1.63        1.9079    4   1   2         2
                56.21          2.24        1.9003   -2  -3   2         2
                56.53         29.51        1.8903    0   3   2         2
                56.90          1.84        1.8789   -4   1   2         2
                57.27          1.49        1.8678    4  -3   1         2
                57.86          1.41        1.8503   -4  -3   1         2
                57.93          3.46        1.8484    1   4   1         2
                58.01          3.47        1.8460   -1   4   1         2
================================================================================
       XPOW Copyright 1993 Bob Downs, Ranjini Swaminathan and Kurt Bartelmehs
  For reference, see Downs et al. (1993) American Mineralogist 78, 1104-1107.