      Fluorapatite
      Bale W
      American Journal of Roentgenology 43 (1940) 735-747
      A comparative Roentgen-ray diffraction study of several natural
      apatites and the apatite-like constituent of bone and tooth substance
      _cod_database_code 1010647
      _database_code_amcsd 0017528
      CELL PARAMETERS:   9.3700  9.3700  6.8800   90.000   90.000  120.000
      SPACE GROUP: P6_3/m    
      X-RAY WAVELENGTH:     1.790290
      Cell Volume:    523.116
      Density (g/cm3):      3.201
      MAX. ABS. INTENSITY / VOLUME**2:      10.62078458    
      RIR:      1.549
      RIR based on corundum from Acta Crystallographica A38 (1982) 733-739
               2-THETA      INTENSITY    D-SPACING   H   K   L   Multiplicity
                12.67         10.18        8.1147    1   0   0         6
                19.64          7.75        5.2477    1   0   1        12
                25.49          9.34        4.0573    2   0   0         6
                26.73          2.55        3.8724    1   1   1        12
                29.68          1.92        3.4949    2   0   1        12
                30.17         34.95        3.4400    0   0   2         2
                32.83          8.87        3.1672    1   0   2        12
                33.94         21.52        3.0671    2   1   0         6
                37.27         20.75        2.8013    1   2   1        12
                37.27         79.25        2.8013    2   1   1        12
                37.67         28.69        2.7728    1   1   2        12
                38.65         43.84        2.7049    3   0   0         6
                39.89         24.63        2.6239    2   0   2        12
                41.66          2.63        2.5173    3   0   1        12
                46.04          2.50        2.2893    2   1   2        12
                46.87         24.18        2.2506    1   3   0         6
                46.87          4.47        2.2506    3   1   0         6
                49.48          3.18        2.1391    3   1   1        12
                49.48          3.53        2.1391    1   3   1        12
                49.79          3.07        2.1263    3   0   2        12
                51.52          4.53        2.0598    1   1   3        12
                53.28          3.09        1.9965    2   0   3        12
                54.78          1.92        1.9458    4   0   1        12
                55.07         27.69        1.9362    2   2   2        12
                56.76          5.48        1.8833    3   1   2        12
                56.76          8.90        1.8833    1   3   2        12
                57.48          1.42        1.8616    2   3   0         6
                58.34         28.78        1.8367    2   1   3        12
                58.34          6.74        1.8367    1   2   3        12
                59.75          2.17        1.7970    3   2   1        12
                59.75          2.03        1.7970    2   3   1        12
================================================================================
       XPOW Copyright 1993 Bob Downs, Ranjini Swaminathan and Kurt Bartelmehs
  For reference, see Downs et al. (1993) American Mineralogist 78, 1104-1107.