      Forsterite
      Ottonello G, Della Giusta A, Molin G M
      American Mineralogist 74 (1989) 411-421
      Cation ordering in Ni-Mg olivines
      sample Ni.30B, synthesized at 902 C, then quenched
      Mg1.4Ni.6SiO4
      _database_code_amcsd 0001216
      CELL PARAMETERS:   4.7458 10.1986  5.9563   90.000   90.000   90.000
      SPACE GROUP: Pbnm      
      X-RAY WAVELENGTH:     1.790290
      Cell Volume:    288.288
      Density (g/cm3):      3.716
      MAX. ABS. INTENSITY / VOLUME**2:      10.54206585    
      RIR:      1.324
      RIR based on corundum from Acta Crystallographica A38 (1982) 733-739
               2-THETA      INTENSITY    D-SPACING   H   K   L   Multiplicity
                20.22         46.34        5.0993    0   2   0         2
                24.02         10.56        4.3028    1   1   0         4
                26.72         32.21        3.8736    0   2   1         4
                27.91         10.96        3.7117    1   0   1         4
                29.74         11.45        3.4879    1   1   1         8
                29.86          7.61        3.4740    1   2   0         4
                34.71          3.54        3.0009    1   2   1         8
                34.98          1.60        2.9781    0   0   2         2
                37.80         66.47        2.7636    1   3   0         4
                40.74          9.57        2.5717    0   2   2         4
                41.11          2.63        2.5496    0   4   0         2
                41.84         44.14        2.5069    1   3   1         8
                42.88        100.00        2.4488    1   1   2         8
                44.33          3.96        2.3729    2   0   0         2
                44.90          6.76        2.3439    0   4   1         4
                45.57          5.07        2.3112    2   1   0         4
                46.64         21.90        2.2611    1   2   2         8
                46.97         14.78        2.2460    1   4   0         4
                49.10          9.88        2.1546    2   1   1         8
                49.17          3.28        2.1514    2   2   0         4
                52.45         12.86        2.0258    1   3   2         8
                54.78          1.54        1.9458    2   3   0         4
                55.05          5.58        1.9368    0   4   2         4
                57.07          9.26        1.8740    1   5   0         4
                59.54          2.27        1.8028    1   1   3         8
================================================================================
       XPOW Copyright 1993 Bob Downs, Ranjini Swaminathan and Kurt Bartelmehs
  For reference, see Downs et al. (1993) American Mineralogist 78, 1104-1107.