      Forsterite
      Ottonello G, Della Giusta A, Molin G M
      American Mineralogist 74 (1989) 411-421
      Cation ordering in Ni-Mg olivines
      sample Ni.30A, heated to 800 C, then quenched
      Mg1.4Ni.6SiO4
      _database_code_amcsd 0001220
      CELL PARAMETERS:   4.7459 10.1950  5.9559   90.000   90.000   90.000
      SPACE GROUP: Pbnm      
      X-RAY WAVELENGTH:     1.790290
      Cell Volume:    288.173
      Density (g/cm3):      3.716
      MAX. ABS. INTENSITY / VOLUME**2:      10.20810621    
      RIR:      1.283
      RIR based on corundum from Acta Crystallographica A38 (1982) 733-739
               2-THETA      INTENSITY    D-SPACING   H   K   L   Multiplicity
                20.23         43.09        5.0975    0   2   0         2
                24.02          9.65        4.3026    1   1   0         4
                26.73         32.58        3.8727    0   2   1         4
                27.91         11.16        3.7116    1   0   1         4
                29.74         13.13        3.4877    1   1   1         8
                29.87          7.71        3.4735    1   2   0         4
                34.71          3.65        3.0005    1   2   1         8
                34.99          2.07        2.9780    0   0   2         2
                37.81         66.96        2.7630    1   3   0         4
                40.75          9.66        2.5713    0   2   2         4
                41.12          2.64        2.5487    0   4   0         2
                41.85         46.74        2.5064    1   3   1         8
                42.89        100.00        2.4486    1   1   2         8
                44.32          4.04        2.3730    2   0   0         2
                44.92          7.14        2.3432    0   4   1         4
                45.57          5.15        2.3112    2   1   0         4
                46.65         22.55        2.2608    1   2   2         8
                46.99         15.11        2.2454    1   4   0         4
                49.10         10.04        2.1546    2   1   1         8
                49.18          2.93        2.1513    2   2   0         4
                52.46         12.20        2.0255    1   3   2         8
                54.79          1.62        1.9456    2   3   0         4
                55.07          5.27        1.9364    0   4   2         4
                57.09          8.90        1.8734    1   5   0         4
                59.55          2.47        1.8027    1   1   3         8
================================================================================
       XPOW Copyright 1993 Bob Downs, Ranjini Swaminathan and Kurt Bartelmehs
  For reference, see Downs et al. (1993) American Mineralogist 78, 1104-1107.