      Forsterite
      Miyake M, Nakamura H, Kojima H, Marumo F
      American Mineralogist 72 (1987) 594-598
      Cation ordering in Co-Mg olivine solid-solution series
      Sample: Co03
      _database_code_amcsd 0001086
      CELL PARAMETERS:   4.7600 10.2210  5.9840   90.000   90.000   90.000
      SPACE GROUP: Pbnm      
      X-RAY WAVELENGTH:     1.790290
      Cell Volume:    291.133
      Density (g/cm3):      3.416
      MAX. ABS. INTENSITY / VOLUME**2:      6.967678237    
      RIR:      0.952
      RIR based on corundum from Acta Crystallographica A38 (1982) 733-739
               2-THETA      INTENSITY    D-SPACING   H   K   L   Multiplicity
                20.18         29.49        5.1105    0   2   0         2
                26.63         49.06        3.8862    0   2   1         4
                27.81         16.84        3.7252    1   0   1         4
                29.64         15.05        3.5000    1   1   1         8
                29.78         11.16        3.4832    1   2   0         4
                34.60          4.84        3.0103    1   2   1         8
                34.82          9.24        2.9920    0   0   2         2
                37.70         66.79        2.7705    1   3   0         4
                40.57          3.66        2.5820    0   2   2         4
                41.72         64.54        2.5141    1   3   1         8
                42.70        100.00        2.4588    1   1   2         8
                44.19          1.80        2.3800    2   0   0         2
                44.78         10.19        2.3500    0   4   1         4
                45.43          7.78        2.3180    2   1   0         4
                46.46         33.00        2.2696    1   2   2         8
                46.86         22.84        2.2514    1   4   0         4
                48.93         15.06        2.1615    2   1   1         8
                52.25          7.36        2.0328    1   3   2         8
                54.62          2.41        1.9511    2   3   0         4
                54.86          3.65        1.9431    0   4   2         4
                56.92          7.21        1.8783    1   5   0         4
                59.26          3.28        1.8106    1   1   3         8
                59.93          3.29        1.7921    1   5   1         8
================================================================================
       XPOW Copyright 1993 Bob Downs, Ranjini Swaminathan and Kurt Bartelmehs
  For reference, see Downs et al. (1993) American Mineralogist 78, 1104-1107.