      Forsterite
      Ottonello G, Della Giusta A, Molin G M
      American Mineralogist 74 (1989) 411-421
      Cation ordering in Ni-Mg olivines
      sample Ni.30B, heated at 1300 C, then quenched
      Mg1.4Ni.6SiO4
      _database_code_amcsd 0001218
      CELL PARAMETERS:   4.7452 10.1909  5.9583   90.000   90.000   90.000
      SPACE GROUP: Pbnm      
      X-RAY WAVELENGTH:     1.790290
      Cell Volume:    288.131
      Density (g/cm3):      3.732
      MAX. ABS. INTENSITY / VOLUME**2:      10.02868505    
      RIR:      1.254
      RIR based on corundum from Acta Crystallographica A38 (1982) 733-739
               2-THETA      INTENSITY    D-SPACING   H   K   L   Multiplicity
                20.24         36.83        5.0954    0   2   0         2
                24.02          7.62        4.3017    1   1   0         4
                26.73         31.85        3.8725    0   2   1         4
                27.91         11.29        3.7119    1   0   1         4
                29.74         17.06        3.4877    1   1   1         8
                29.88          7.90        3.4726    1   2   0         4
                34.72          3.73        3.0002    1   2   1         8
                34.97          3.12        2.9792    0   0   2         2
                37.82         67.94        2.7621    1   3   0         4
                40.74         10.31        2.5718    0   2   2         4
                41.14          2.81        2.5477    0   4   0         2
                41.86         51.32        2.5060    1   3   1         8
                42.88        100.00        2.4492    1   1   2         8
                44.33          4.38        2.3726    2   0   0         2
                44.93          7.98        2.3426    0   4   1         4
                45.58          5.35        2.3108    2   1   0         4
                46.64         23.13        2.2611    1   2   2         8
                47.01         15.55        2.2447    1   4   0         4
                49.10         10.42        2.1544    2   1   1         8
                49.19          2.15        2.1509    2   2   0         4
                52.45         11.03        2.0255    1   3   2         8
                54.80          1.61        1.9451    2   3   0         4
                55.07          4.48        1.9362    0   4   2         4
                57.11          8.08        1.8727    1   5   0         4
                59.53          3.15        1.8032    1   1   3         8
================================================================================
       XPOW Copyright 1993 Bob Downs, Ranjini Swaminathan and Kurt Bartelmehs
  For reference, see Downs et al. (1993) American Mineralogist 78, 1104-1107.