      Gotzenite
      Bellezza M, Merlino S, Perchiazzi N
      European Journal of Mineralogy 16 (2004) 957-969
      Chemical and structural study of the Zr,Ti-disilicates in the venanzite
      from Pian di Celle, Umbria, Italy
      Locality: Pian di Celle, Umbria, Italy
      _database_code_amcsd 0007084
      CELL PARAMETERS:   9.6360  7.3410  5.7370   89.940  100.740  101.060
      SPACE GROUP: P-1       
      X-RAY WAVELENGTH:     1.790290
      Cell Volume:    391.055
      Density (g/cm3):      3.125
      MAX. ABS. INTENSITY / VOLUME**2:      5.897575241    
      RIR:      0.881
      RIR based on corundum from Acta Crystallographica A38 (1982) 733-739
               2-THETA      INTENSITY    D-SPACING   H   K   L   Multiplicity
                11.06          9.92        9.2854    1   0   0         2
                18.29         10.17        5.6329    0   0   1         2
                19.75          4.18        5.2182    1   1   0         2
                23.18          1.67        4.4558    1   0   1         2
                23.35          1.46        4.4241   -1   1   1         2
                23.69          3.79        4.3610    0   1   1         2
                24.01          3.39        4.3028   -2   1   0         2
                25.77          6.63        4.0145    1  -1   1         2
                26.05         22.19        3.9713   -2   0   1         2
                27.95          1.85        3.7063   -2   1   1         2
                28.82          2.47        3.5975    1   1   1         2
                28.83          5.50        3.5955    2   1   0         2
                31.58          4.02        3.2895    2   0   1         2
                31.61          3.28        3.2864   -2  -1   1         2
                32.92          1.78        3.1589   -2   2   0         2
                32.96          1.19        3.1555    1   2   0         2
                33.62         83.57        3.0951    3   0   0         2
                33.71         12.67        3.0875   -1   2   1         2
                33.74         10.57        3.0842    0  -2   1         2
                33.92          1.05        3.0690   -3   1   0         2
                34.90         93.84        2.9850    0   2   1         2
                34.91        100.00        2.9840    1  -2   1         2
                35.21         28.51        2.9599   -3   0   1         2
                35.77          2.05        2.9148   -3   1   1         2
                36.62         20.37        2.8495   -1   0   2         2
                37.06         11.68        2.8164    0   0   2         2
                39.53          8.16        2.6473    2  -2   1         2
                39.54          8.29        2.6468    1   2   1         2
                39.64         45.56        2.6403   -2   0   2         2
                40.08          1.76        2.6123   -3   2   0         2
                40.13          1.76        2.6091    2   2   0         2
                40.88          1.60        2.5635    1   0   2         2
                41.22          1.01        2.5431   -2   1   2         2
                41.64         16.26        2.5185    3   0   1         2
                41.94         15.39        2.5012   -3   2   1         2
                42.01         14.00        2.4972   -2  -2   1         2
                44.84          1.73        2.3471   -4   1   0         2
                45.36          5.50        2.3213    4   0   0         2
                45.54          5.42        2.3129   -3   0   2         2
                46.66          9.37        2.2602   -1   2   2         2
                46.71          8.95        2.2580    0  -2   2         2
                46.73          2.19        2.2573    3  -2   1         2
                46.75          2.35        2.2561    2   2   1         2
                47.38          7.02        2.2279    2   0   2         2
                47.74          9.07        2.2120   -2   2   2         2
                47.81          9.97        2.2092   -1  -2   2         2
                49.17          2.91        2.1514   -4   2   0         2
                49.24          2.60        2.1489    3   2   0         2
                51.57          5.10        2.0577   -3   2   2         2
                51.65          4.85        2.0548   -2  -2   2         2
                52.96          2.40        2.0076    1   2   2         2
                52.97          1.76        2.0073    2  -2   2         2
                53.59          7.20        1.9857   -4   0   2         2
                55.77         27.64        1.9138    4  -2   1         2
                55.81         28.12        1.9126    3   2   1         2
                55.83          1.19        1.9122   -1   0   3         2
                56.95          2.79        1.8776    0   0   3         2
                57.12         11.71        1.8725   -5   0   1         2
                57.93          1.03        1.8484   -4  -1   2         2
                58.39         41.28        1.8352   -1   4   0         2
                59.53          4.24        1.8031   -5   2   1         2
                59.62          4.08        1.8008   -4  -2   1         2
                59.68          6.64        1.7989    3  -2   2         2
                59.69          6.30        1.7987    2   2   2         2
================================================================================
       XPOW Copyright 1993 Bob Downs, Ranjini Swaminathan and Kurt Bartelmehs
  For reference, see Downs et al. (1993) American Mineralogist 78, 1104-1107.