      Howieite
      Wenk H R
      American Mineralogist 59 (1974) 86-97
      Howieite, a new type of chain silicate
      _database_code_amcsd 0000396
      CELL PARAMETERS:  10.1700  9.7740  9.5890   91.220   70.760  108.090
      SPACE GROUP: P-1       
      X-RAY WAVELENGTH:     1.790290
      Cell Volume:    851.947
      Density (g/cm3):      3.320
      MAX. ABS. INTENSITY / VOLUME**2:      7.596351470    
      RIR:      1.068
      RIR based on corundum from Acta Crystallographica A38 (1982) 733-739
               2-THETA      INTENSITY    D-SPACING   H   K   L   Multiplicity
                11.10        100.00        9.2529    0   1   0         2
                11.30          3.26        9.0921    1   0   0         2
                11.40          5.58        9.0164    0   0   1         2
                13.05          1.93        7.8792    1   0   1         2
                13.06         62.83        7.8730   -1   1   0         2
                15.37          4.38        6.6952    1  -1   1         2
                18.26          3.04        5.6415    1   1   0         2
                18.63         10.77        5.5311   -1   0   1         2
                21.31          3.64        4.8413    2  -1   1         2
                21.53         27.22        4.7930   -1   2   0         2
                21.67         11.61        4.7614    2   0   1         2
                21.82          3.45        4.7288    1   0   2         2
                21.84          1.38        4.7256   -2   1   0         2
                22.31         18.61        4.6265    0   2   0         2
                22.71          2.16        4.5461    2   0   0         2
                23.80          7.03        4.3402    1  -1   2         2
                24.05          4.46        4.2964   -1  -1   1         2
                24.17          1.25        4.2760    0   2   1         2
                24.58          6.28        4.2050    0   1   2         2
                25.27          2.12        4.0922    1   1   2         2
                25.29          1.68        4.0896   -1   2   1         2
                26.04          1.41        3.9731    0  -2   1         2
                26.29         15.60        3.9365   -2   2   0         2
                27.18          1.43        3.8094    2   1   1         2
                27.70          1.72        3.7399   -2   1   1         2
                28.15         12.72        3.6814    1   2   1         2
                28.21         18.70        3.6735    1   2   0         2
                28.82          6.99        3.5975   -2   0   1         2
                30.66          4.74        3.3861    3  -1   1         2
                30.67          3.00        3.3852    0   2   2         2
                30.99          8.65        3.3504   -2   2   1         2
                31.91         49.47        3.2567   -1   3   0         2
                32.26          1.71        3.2224    3   0   1         2
                32.72          3.06        3.1778   -1  -2   1         2
                33.00          1.25        3.1520   -1   2   2         2
                33.14          4.36        3.1390    3  -2   1         2
                33.74          3.63        3.0843    0   3   0         2
                34.16         25.00        3.0479   -2   3   0         2
                34.29          2.33        3.0364    1  -1   3         2
                34.36          4.95        3.0307    3   0   0         2
                34.44          1.26        3.0240    2   0   3         2
                34.50         10.79        3.0188   -3   2   0         2
                34.66          4.28        3.0055    0   0   3         2
                34.66          1.84        3.0047    1   1   3         2
                34.90          3.33        2.9848    2  -1   3         2
                35.48          5.09        2.9375    0   1   3         2
                35.67          6.14        2.9226    2   2   1         2
                36.73          9.76        2.8408    0  -3   1         2
                37.00         37.50        2.8208    2   2   0         2
                38.65          1.27        2.7049    2  -3   2         2
                39.17         73.49        2.6706    3  -1   3         2
                39.48          2.03        2.6504    1  -2   3         2
                39.51          2.06        2.6484   -3   2   1         2
                39.64         17.92        2.6400    3   1   0         2
                39.85          5.97        2.6264    3   0   3         2
                39.89          1.21        2.6243   -3   3   0         2
                39.89         68.38        2.6242   -1   1   3         2
                40.14          1.61        2.6086    1   2   3         2
                40.24          9.20        2.6023   -1   0   3         2
                41.64          1.11        2.5186    3  -3   2         2
                42.80          1.47        2.4535   -1   2   3         2
                43.37          2.74        2.4224    0  -2   3         2
                43.81          2.06        2.3996    2   2   3         2
                43.87          4.50        2.3965   -2   4   0         2
                44.52         12.96        2.3628   -4   2   0         2
                45.53          1.06        2.3132    0   4   0         2
                45.69          1.47        2.3058    2  -3   3         2
                46.26          1.10        2.2787    4  -3   1         2
                46.38          3.01        2.2730    4   0   0         2
                46.74          1.24        2.2568    0   3   3         2
                47.12         31.22        2.2396    2   3   0         2
                47.15         11.97        2.2383    1  -3   3         2
                47.29          1.28        2.2317    3  -3   3         2
                47.38          3.94        2.2280    3   2   0         2
                47.61         15.92        2.2176    4  -2   3         2
                48.01         12.49        2.2006    1   3   3         2
                48.48          1.71        2.1802   -1   3   3         2
                48.68         14.09        2.1719   -2   2   3         2
                49.97          1.07        2.1192   -1  -2   3         2
                50.20          1.43        2.1102    3   2   3         2
                50.79          8.89        2.0872    1   4   0         2
                51.75         16.17        2.0513    4  -3   3         2
                52.08          1.90        2.0389    4   1   3         2
                52.12          1.21        2.0376    2   3   3         2
                52.29          1.08        2.0316   -2  -1   3         2
                53.02         13.94        2.0056   -2   3   3         2
                55.74          1.06        1.9149   -5   2   0         2
                56.57          2.58        1.8891    1  -4   3         2
                56.85          2.75        1.8805    3   3   0         2
                57.58          2.04        1.8588    1   4   3         2
                57.78          2.19        1.8527    4   1   4         2
                57.95          3.78        1.8478   -5   3   0         2
                58.22          3.02        1.8401    4  -4   3         2
                58.58          1.57        1.8296    5  -3   3         2
                59.64          3.77        1.8002   -2   4   3         2
                59.73          1.08        1.7976   -4   3   2         2
                59.90          2.06        1.7931   -3   3   3         2
================================================================================
       XPOW Copyright 1993 Bob Downs, Ranjini Swaminathan and Kurt Bartelmehs
  For reference, see Downs et al. (1993) American Mineralogist 78, 1104-1107.