      Hydroxylellestadite
      Hughes J M, Drexler J W
      Neues Jahrbuch fur Mineralogie, Monatshefte 1991 (1991) 327-336
      Cation substitution in the apatite tetrahedral site:
      crystal structures of type hydroxylellestadtite and type fermorite
      Locality: Crestmore, California, USA
      _database_code_amcsd 0014857
      CELL PARAMETERS:   9.5224  9.5268  6.9087   90.000   90.000  119.948
      SPACE GROUP: P2_1/m    
      X-RAY WAVELENGTH:     1.790290
      Cell Volume:    543.058
      Density (g/cm3):      3.079
      MAX. ABS. INTENSITY / VOLUME**2:      5.414429608    
      RIR:      0.821
      RIR based on corundum from Acta Crystallographica A38 (1982) 733-739
               2-THETA      INTENSITY    D-SPACING   H   K   L   Multiplicity
                12.45          8.43        8.2547    0   1   0         2
                12.46          9.04        8.2509    1   0   0         2
                12.46          8.97        8.2464   -1   1   0         2
                19.45          2.49        5.2980    0   1   1         4
                19.46          2.56        5.2970    1   0   1         4
                19.46          2.35        5.2958    1  -1   1         4
                21.67          1.07        4.7612   -2   1   0         2
                25.05          2.17        4.1274    0   2   0         2
                25.06          1.88        4.1255    2   0   0         2
                25.08          2.01        4.1232   -2   2   0         2
                26.38          3.33        3.9231    1   1   1         4
                26.39          3.28        3.9216   -1   2   1         4
                26.40          3.38        3.9204    2  -1   1         4
                29.27          1.49        3.5432    0   2   1         4
                29.28          1.26        3.5420    2   0   1         4
                29.29          1.09        3.5406    2  -2   1         4
                30.04         64.83        3.4543    0   0   2         2
                32.63          5.00        3.1866    0   1   2         4
                32.63          5.09        3.1864    1   0   2         4
                32.63          4.92        3.1861    1  -1   2         4
                33.35          8.02        3.1197    2   1   0         2
                33.36          7.34        3.1191   -1   3   0         2
                33.38          7.50        3.1167   -3   2   0         2
                36.70         17.50        2.8437    1   2   1         4
                36.70         40.54        2.8432    2   1   1         4
                36.71         41.97        2.8428   -1   3   1         4
                36.72         17.71        2.8417   -2   3   1         4
                36.72         16.97        2.8415    3  -1   1         4
                36.73         41.27        2.8410    3  -2   1         4
                37.33         26.84        2.7970    1   1   2         4
                37.34         25.83        2.7964   -1   2   2         4
                37.34         26.37        2.7960    2  -1   2         4
                37.97         36.58        2.7516    0   3   0         2
                37.99         37.66        2.7503    3   0   0         2
                38.01         37.23        2.7488   -3   3   0         2
                39.50         14.74        2.6490    0   2   2         4
                39.51         13.95        2.6485    2   0   2         4
                39.52         13.78        2.6479    2  -2   2         4
                41.00          2.05        2.5563    0   3   1         4
                41.01          2.31        2.5553    3   0   1         4
                41.03          1.94        2.5541    3  -3   1         4
                45.49          2.32        2.3152    2   1   2         4
                45.50          2.12        2.3150   -1   3   2         4
                45.52          2.28        2.3140    3  -2   2         4
                46.03          8.74        2.2897    1   3   0         2
                46.04          2.09        2.2890    3   1   0         2
                46.04          2.55        2.2890   -1   4   0         2
                46.07          9.16        2.2878   -4   1   0         2
                46.07          8.99        2.2876   -3   4   0         2
                46.08          2.33        2.2870   -4   3   0         2
                48.64          2.88        2.1734    1   3   1         4
                48.68          2.70        2.1718    4  -1   1         4
                48.69          2.68        2.1716   -3   4   1         4
                51.15          2.34        2.0735    1   1   3         4
                51.16          2.39        2.0733   -1   2   3         4
                51.16          2.32        2.0731    2  -1   3         4
                52.86          1.66        2.0110    0   2   3         4
                52.87          1.96        2.0108    2   0   3         4
                52.88          1.96        2.0106    2  -2   3         4
                54.30         14.75        1.9615    2   2   2         4
                54.33         14.72        1.9608   -2   4   2         4
                54.34         15.02        1.9602    4  -2   2         4
                55.94          4.18        1.9085    1   3   2         4
                55.96          2.76        1.9081    3   1   2         4
                55.96          2.67        1.9081   -1   4   2         4
                55.98          3.70        1.9074    4  -1   2         4
                55.98          3.78        1.9073   -3   4   2         4
                55.99          2.68        1.9069    4  -3   2         4
                56.41          2.06        1.8939    2   3   0         2
                57.78          4.87        1.8529    1   2   3         4
                57.78         10.77        1.8528    2   1   3         4
                57.79         10.87        1.8526   -1   3   3         4
                57.80          5.14        1.8524   -2   3   3         4
                57.80          4.85        1.8523    3  -1   3         4
                57.80         11.16        1.8521    3  -2   3         4
                58.69          3.93        1.8265    2   3   1         4
                58.70          4.29        1.8263    3   2   1         4
                59.59          2.83        1.8015    1   4   0         2
                59.61          2.91        1.8009    4   1   0         2
================================================================================
       XPOW Copyright 1993 Bob Downs, Ranjini Swaminathan and Kurt Bartelmehs
  For reference, see Downs et al. (1993) American Mineralogist 78, 1104-1107.