      Ilvaite
      Carrozzini B
      European Journal of Mineralogy 6 (1994) 465-479
      Crystal structure refinements of ilvaite: new relationships
      between chemical composition and crystallographic parameters
      Sample: Oridda X-2.3
      _database_code_amcsd 0006541
      CELL PARAMETERS:  12.9930  8.8250  5.8460   90.000   90.030   90.000
      SPACE GROUP: P2_1/a    
      X-RAY WAVELENGTH:     1.790290
      Cell Volume:    670.321
      Density (g/cm3):      4.046
      MAX. ABS. INTENSITY / VOLUME**2:      7.697952500    
      RIR:      0.888
      RIR based on corundum from Acta Crystallographica A38 (1982) 733-739
               2-THETA      INTENSITY    D-SPACING   H   K   L   Multiplicity
                14.09        100.00        7.3003    1   1   0         4
                15.84         29.14        6.4965    2   0   0         2
                21.17         10.83        4.8737    0   1   1         4
                22.62          7.12        4.5639   -1   1   1         4
                22.63          7.44        4.5625    1   1   1         4
                24.74          5.90        4.1781    1   2   0         4
                26.54          2.85        3.8994   -2   1   1         4
                26.55          2.88        3.8977    2   1   1         4
                26.62         23.16        3.8880    3   1   0         4
                30.53          3.61        3.3995   -1   2   1         4
                30.54          3.67        3.3990    1   2   1         4
                31.99         26.57        3.2482    4   0   0         2
                32.10          4.05        3.2381   -3   1   1         4
                32.11          4.21        3.2367    3   1   1         4
                33.67         11.66        3.0909    3   2   0         4
                35.67          8.35        2.9230    0   0   2         2
                36.36         43.62        2.8691    1   3   0         4
                36.74         54.32        2.8400   -4   0   1         2
                36.76         53.40        2.8388    4   0   1         2
                38.24         10.46        2.7329   -3   2   1         4
                38.25         10.66        2.7321    3   2   1         4
                38.52         53.72        2.7138   -1   1   2         4
                38.53         53.97        2.7133    1   1   2         4
                39.03         73.70        2.6797    2   3   0         4
                39.83          1.61        2.6277    0   3   1         4
                40.02         17.02        2.6159    4   2   0         4
                40.67          4.09        2.5757   -1   3   1         4
                40.68          3.98        2.5755    1   3   1         4
                41.06         11.94        2.5522   -2   1   2         4
                41.08         11.94        2.5513    2   1   2         4
                42.09         10.19        2.4928    5   1   0         4
                43.10         21.00        2.4368    0   2   2         4
                43.11         18.74        2.4362   -2   3   1         4
                43.12         18.33        2.4358    2   3   1         4
                44.03         16.43        2.3881   -4   2   1         4
                44.04         16.91        2.3874    4   2   1         4
                45.05         17.74        2.3369   -3   1   2         4
                45.07         17.84        2.3359    3   1   2         4
                46.96          1.87        2.2468   -3   3   1         4
                46.97          1.80        2.2463    3   3   1         4
                47.87          1.57        2.2062    0   4   0         2
                48.60         21.69        2.1751    1   4   0         4
                48.65         18.43        2.1734   -4   0   2         2
                48.67         18.36        2.1722    4   0   2         2
                48.83          2.36        2.1655    6   0   0         2
                49.85          5.25        2.1241   -3   2   2         4
                49.87          5.27        2.1234    3   2   2         4
                50.20         28.15        2.1103   -4   1   2         4
                50.22         28.04        2.1093    4   1   2         4
                50.74         13.86        2.0891    2   4   0         4
                54.13          5.41        1.9673   -2   4   1         4
                54.14          5.40        1.9671    2   4   1         4
                54.17         13.22        1.9659    3   4   0         4
                54.66          7.85        1.9497   -4   2   2         4
                54.69          7.85        1.9489    4   2   2         4
                54.73          1.51        1.9475    5   3   0         4
                54.83          1.74        1.9440    6   2   0         4
                56.12          3.59        1.9028    0   1   3         4
                56.31         14.98        1.8972   -5   1   2         4
                56.34         14.99        1.8962    5   1   2         4
                57.95          2.39        1.8479   -5   3   1         4
                57.96          2.33        1.8475    5   3   1         4
                58.05          1.64        1.8449   -6   2   1         4
                58.07          1.71        1.8444    6   2   1         4
                58.74          2.59        1.8251    4   4   0         4
                59.05          2.10        1.8164    7   1   0         4
================================================================================
       XPOW Copyright 1993 Bob Downs, Ranjini Swaminathan and Kurt Bartelmehs
  For reference, see Downs et al. (1993) American Mineralogist 78, 1104-1107.