      Ilvaite
      Carrozzini B
      European Journal of Mineralogy 6 (1994) 465-479
      Crystal structure refinements of ilvaite: new relationships
      between chemical composition and crystallographic parameters
      Sample: Cinco Villas X-3
      _database_code_amcsd 0006538
      CELL PARAMETERS:  13.0140  8.8110  5.8520   90.000   90.070   90.000
      SPACE GROUP: P2_1/a    
      X-RAY WAVELENGTH:     1.790290
      Cell Volume:    671.027
      Density (g/cm3):      4.007
      MAX. ABS. INTENSITY / VOLUME**2:      7.219296530    
      RIR:      0.841
      RIR based on corundum from Acta Crystallographica A38 (1982) 733-739
               2-THETA      INTENSITY    D-SPACING   H   K   L   Multiplicity
                14.09        100.00        7.2961    1   1   0         4
                15.81         34.75        6.5070    2   0   0         2
                21.16         10.90        4.8748    0   1   1         4
                22.61          6.85        4.5665   -1   1   1         4
                22.62          7.95        4.5635    1   1   1         4
                24.77          6.47        4.1729    1   2   0         4
                26.52          3.67        3.9033   -2   1   1         4
                26.54          3.91        3.8995    2   1   1         4
                26.59         24.58        3.8919    3   1   0         4
                30.55          3.98        3.3982   -1   2   1         4
                30.56          3.96        3.3969    1   2   1         4
                31.94         26.39        3.2535    4   0   0         2
                32.05          3.78        3.2423   -3   1   1         4
                32.09          4.22        3.2390    3   1   1         4
                33.67         12.05        3.0910    3   2   0         4
                35.63          9.69        2.9260    0   0   2         2
                36.41         42.82        2.8649    1   3   0         4
                36.68         59.08        2.8451   -4   0   1         2
                36.72         56.64        2.8421    4   0   1         2
                38.22         11.35        2.7342   -3   2   1         4
                38.25         12.10        2.7322    3   2   1         4
                38.48         55.73        2.7164   -1   1   2         4
                38.50         55.99        2.7151    1   1   2         4
                39.07         77.76        2.6769    2   3   0         4
                39.88          1.45        2.6250    0   3   1         4
                40.00         17.49        2.6172    4   2   0         4
                40.71          4.32        2.5734   -1   3   1         4
                40.72          3.91        2.5729    1   3   1         4
                41.02         13.22        2.5551   -2   1   2         4
                41.05         13.07        2.5530    2   1   2         4
                42.03         10.22        2.4962    5   1   0         4
                43.09         21.43        2.4374    0   2   2         4
                43.14         20.93        2.4348   -2   3   1         4
                43.16         19.59        2.4339    2   3   1         4
                43.99         16.52        2.3900   -4   2   1         4
                44.03         18.00        2.3882    4   2   1         4
                44.98         17.85        2.3400   -3   1   2         4
                45.03         17.87        2.3375    3   1   2         4
                46.97          1.98        2.2463   -3   3   1         4
                46.99          1.74        2.2453    3   3   1         4
                47.95          1.49        2.2027    0   4   0         2
                48.56         19.13        2.1769   -4   0   2         2
                48.62         18.81        2.1743    4   0   2         2
                48.68         21.79        2.1719    1   4   0         4
                48.75          2.40        2.1690    6   0   0         2
                49.80          5.53        2.1259   -3   2   2         4
                49.85          5.57        2.1240    3   2   2         4
                50.12         30.45        2.1134   -4   1   2         4
                50.18         30.24        2.1109    4   1   2         4
                50.81         14.60        2.0864    2   4   0         4
                54.18          5.73        1.9655   -2   4   1         4
                54.20          5.69        1.9650    2   4   1         4
                54.23         14.32        1.9640    3   4   0         4
                54.60          7.92        1.9516   -4   2   2         4
                54.66          7.92        1.9497    4   2   2         4
                54.71          1.54        1.9479    5   3   0         4
                54.78          1.83        1.9459    6   2   0         4
                56.07          3.92        1.9045    0   1   3         4
                56.21         15.61        1.9001   -5   1   2         4
                56.28         15.74        1.8979    5   1   2         4
                57.92          2.40        1.8487   -5   3   1         4
                57.95          2.14        1.8477    5   3   1         4
                57.97          1.76        1.8471   -6   2   1         4
                58.02          1.98        1.8459    6   2   1         4
                58.78          2.40        1.8240    4   4   0         4
                58.96          2.00        1.8191    7   1   0         4
================================================================================
       XPOW Copyright 1993 Bob Downs, Ranjini Swaminathan and Kurt Bartelmehs
  For reference, see Downs et al. (1993) American Mineralogist 78, 1104-1107.