      Ilvaite
      Carrozzini B
      European Journal of Mineralogy 6 (1994) 465-479
      Crystal structure refinements of ilvaite: new relationships
      between chemical composition and crystallographic parameters
      Sample: Seriphos X-3.1
      _database_code_amcsd 0006539
      CELL PARAMETERS:  13.0130  8.8020  5.8570   90.000   90.280   90.000
      SPACE GROUP: P2_1/a    
      X-RAY WAVELENGTH:     1.790290
      Cell Volume:    670.855
      Density (g/cm3):      4.026
      MAX. ABS. INTENSITY / VOLUME**2:      7.572243661    
      RIR:      0.878
      RIR based on corundum from Acta Crystallographica A38 (1982) 733-739
               2-THETA      INTENSITY    D-SPACING   H   K   L   Multiplicity
                14.10        100.00        7.2908    1   1   0         4
                15.82         34.08        6.5064    2   0   0         2
                21.16         10.86        4.8761    0   1   1         4
                22.58          8.18        4.5722   -1   1   1         4
                22.64          6.42        4.5600    1   1   1         4
                24.80          6.61        4.1690    1   2   0         4
                26.47          3.98        3.9096   -2   1   1         4
                26.58          3.44        3.8943    2   1   1         4
                26.60         24.33        3.8908    3   1   0         4
                30.54          4.78        3.3990   -1   2   1         4
                30.59          2.94        3.3939    1   2   1         4
                31.94         25.88        3.2532    4   0   0         2
                32.00          3.71        3.2474   -3   1   1         4
                32.13          3.86        3.2344    3   1   1         4
                33.69         11.84        3.0893    3   2   0         4
                35.60          8.74        2.9285    0   0   2         2
                36.45         41.30        2.8622    1   3   0         4
                36.61         57.00        2.8499   -4   0   1         2
                36.77         53.70        2.8381    4   0   1         2
                38.19         11.07        2.7364   -3   2   1         4
                38.30         11.62        2.7286    3   2   1         4
                38.43         54.38        2.7200   -1   1   2         4
                38.50         54.91        2.7149    1   1   2         4
                39.11         75.69        2.6746    2   3   0         4
                39.90          1.43        2.6233    0   3   1         4
                40.02         17.34        2.6161    4   2   0         4
                40.72          4.17        2.5726   -1   3   1         4
                40.76          3.60        2.5704    1   3   1         4
                40.94         13.24        2.5597   -2   1   2         4
                41.08         12.48        2.5512    2   1   2         4
                42.04         10.27        2.4958    5   1   0         4
                43.08         21.27        2.4380    0   2   2         4
                43.14         19.71        2.4348   -2   3   1         4
                43.21         19.09        2.4311    2   3   1         4
                43.95         15.04        2.3921   -4   2   1         4
                44.09         18.08        2.3851    4   2   1         4
                44.89         16.80        2.3447   -3   1   2         4
                45.09         18.10        2.3349    3   1   2         4
                45.98          1.08        2.2921    5   1   1         4
                46.96          2.12        2.2469   -3   3   1         4
                47.05          1.40        2.2425    3   3   1         4
                48.01          1.41        2.2005    0   4   0         2
                48.44         19.45        2.1818   -4   0   2         2
                48.70         18.07        2.1712    4   0   2         2
                48.73         21.39        2.1697    1   4   0         4
                48.75          2.33        2.1688    6   0   0         2
                49.73          5.23        2.1290   -3   2   2         4
                49.91          5.70        2.1216    3   2   2         4
                50.01         29.90        2.1177   -4   1   2         4
                50.25         28.59        2.1081    4   1   2         4
                50.86         14.04        2.0845    2   4   0         4
                54.21          5.49        1.9648   -2   4   1         4
                54.26          5.34        1.9629    2   4   1         4
                54.28         14.21        1.9624    3   4   0         4
                54.51          7.73        1.9548   -4   2   2         4
                54.74          7.81        1.9472    4   2   2         4
                54.74          1.52        1.9470    5   3   0         4
                54.79          1.82        1.9454    6   2   0         4
                56.02          3.83        1.9060    0   1   3         4
                56.09         14.97        1.9039   -5   1   2         4
                56.37         15.78        1.8951    5   1   2         4
                57.89          2.38        1.8496   -5   3   1         4
                57.92          1.60        1.8487   -6   2   1         4
                58.03          1.92        1.8455    5   3   1         4
                58.09          2.10        1.8438    6   2   1         4
                58.83          2.30        1.8227    4   4   0         4
                58.96          2.01        1.8189    7   1   0         4
================================================================================
       XPOW Copyright 1993 Bob Downs, Ranjini Swaminathan and Kurt Bartelmehs
  For reference, see Downs et al. (1993) American Mineralogist 78, 1104-1107.