      Ilvaite
      Carrozzini B
      European Journal of Mineralogy 6 (1994) 465-479
      Crystal structure refinements of ilvaite: new relationships
      between chemical composition and crystallographic parameters
      Sample: Oridda X-3.4
      Note: O(2,1) y-coordinate changed in order to match reported bond lengths
      _database_code_amcsd 0006543
      CELL PARAMETERS:  13.0090  8.8380  5.8430   90.000   90.160   90.000
      SPACE GROUP: P2_1/a    
      X-RAY WAVELENGTH:     1.790290
      Cell Volume:    671.788
      Density (g/cm3):      4.031
      MAX. ABS. INTENSITY / VOLUME**2:      8.094072562    
      RIR:      0.937
      RIR based on corundum from Acta Crystallographica A38 (1982) 733-739
               2-THETA      INTENSITY    D-SPACING   H   K   L   Multiplicity
                14.07        100.00        7.3105    1   1   0         4
                15.82         29.95        6.5045    2   0   0         2
                21.17          8.74        4.8741    0   1   1         4
                22.60          6.90        4.5677   -1   1   1         4
                22.64          5.77        4.5608    1   1   1         4
                24.71          6.52        4.1842    1   2   0         4
                26.50          3.04        3.9049   -2   1   1         4
                26.56          2.71        3.8961    2   1   1         4
                26.59         22.72        3.8930    3   1   0         4
                30.50          3.98        3.4033   -1   2   1         4
                30.53          3.10        3.4004    1   2   1         4
                31.95         25.79        3.2522    4   0   0         2
                32.04          3.81        3.2435   -3   1   1         4
                32.12          3.77        3.2360    3   1   1         4
                33.62         11.42        3.0951    3   2   0         4
                35.68          7.28        2.9215    0   0   2         2
                36.30         41.36        2.8732    1   3   0         4
                36.68         51.04        2.8451   -4   0   1         2
                36.77         49.94        2.8383    4   0   1         2
                38.18          9.79        2.7373   -3   2   1         4
                38.24          9.87        2.7328    3   2   1         4
                38.51         51.73        2.7143   -1   1   2         4
                38.55         51.76        2.7114    1   1   2         4
                38.97         72.26        2.6836    2   3   0         4
                39.79          1.39        2.6306    0   3   1         4
                39.97         16.53        2.6193    4   2   0         4
                40.62          3.66        2.5790   -1   3   1         4
                40.64          3.43        2.5777    1   3   1         4
                41.03         11.94        2.5540   -2   1   2         4
                41.12         11.60        2.5491    2   1   2         4
                42.03          9.81        2.4959    5   1   0         4
                43.05         17.70        2.4397   -2   3   1         4
                43.09         17.47        2.4376    2   3   1         4
                43.10         20.15        2.4370    0   2   2         4
                43.95         14.85        2.3922   -4   2   1         4
                44.03         16.10        2.3881    4   2   1         4
                44.99         16.42        2.3395   -3   1   2         4
                45.11         16.80        2.3339    3   1   2         4
                46.88          1.81        2.2503   -3   3   1         4
                46.93          1.47        2.2478    3   3   1         4
                47.80          1.52        2.2095    0   4   0         2
                48.53         19.99        2.1783    1   4   0         4
                48.57         17.52        2.1764   -4   0   2         2
                48.72         16.76        2.1703    4   0   2         2
                48.77          2.42        2.1682    6   0   0         2
                49.79          5.21        2.1266   -3   2   2         4
                49.89          5.52        2.1224    3   2   2         4
                50.12         26.87        2.1133   -4   1   2         4
                50.26         26.37        2.1077    4   1   2         4
                50.67         13.15        2.0921    2   4   0         4
                54.05          5.22        1.9702   -2   4   1         4
                54.08          5.15        1.9691    2   4   1         4
                54.09         13.05        1.9687    3   4   0         4
                54.58          7.76        1.9524   -4   2   2         4
                54.65          1.63        1.9501    5   3   0         4
                54.71          7.85        1.9481    4   2   2         4
                54.76          1.65        1.9465    6   2   0         4
                56.15          3.18        1.9020    0   1   3         4
                56.21         14.66        1.9002   -5   1   2         4
                56.37         15.13        1.8952    5   1   2         4
                57.84          2.33        1.8510   -5   3   1         4
                57.92          2.13        1.8487    5   3   1         4
                57.94          1.44        1.8481   -6   2   1         4
                58.04          1.63        1.8453    6   2   1         4
                58.65          2.43        1.8276    4   4   0         4
                58.97          1.75        1.8186    7   1   0         4
================================================================================
       XPOW Copyright 1993 Bob Downs, Ranjini Swaminathan and Kurt Bartelmehs
  For reference, see Downs et al. (1993) American Mineralogist 78, 1104-1107.