      Kryzhanovskite
      Moore P B
      American Mineralogist 56 (1971) 1-17
      The Fe3(H2O)n(PO4)2 homologous series: Crystal-chemical relationships and
      oxidized equivalents
      _database_code_amcsd 0000219
      CELL PARAMETERS:   9.4040  9.9730  8.5360   90.000   90.000   90.000
      SPACE GROUP: Pbna      
      X-RAY WAVELENGTH:     1.790290
      Cell Volume:    800.558
      Density (g/cm3):      3.364
      MAX. ABS. INTENSITY / VOLUME**2:      13.27265361    
      RIR:      1.842
      RIR based on corundum from Acta Crystallographica A38 (1982) 733-739
               2-THETA      INTENSITY    D-SPACING   H   K   L   Multiplicity
                16.28          3.12        6.3205    1   0   1         4
                19.31         18.43        5.3386    1   1   1         8
                20.68         41.23        4.9865    0   2   0         2
                21.95         26.03        4.7020    2   0   0         2
                24.21          2.38        4.2680    0   0   2         2
                24.30         23.57        4.2530    2   1   0         4
                26.44         17.61        3.9148    1   2   1         8
                30.34          9.07        3.4210    2   2   0         4
                32.05          3.39        3.2425    0   2   2         4
                32.75        100.00        3.1755    2   2   1         8
                32.91         32.98        3.1603    2   0   2         4
                33.96         28.67        3.0654    1   2   2         8
                34.57          3.38        3.0126    2   1   2         8
                35.42          1.60        2.9425    3   0   1         4
                35.43          1.80        2.9422    1   3   1         8
                36.98          1.28        2.8222    3   1   1         8
                38.38         15.11        2.7234    1   0   3         4
                38.51         17.19        2.7144    2   3   0         4
                39.19          6.57        2.6693    2   2   2         8
                39.84         18.99        2.6272    1   1   3         8
                41.37          2.59        2.5342    3   2   1         8
                41.51          3.96        2.5262    1   3   2         8
                42.08          1.63        2.4932    0   4   0         2
                42.47          8.91        2.4713    0   2   3         4
                42.88          9.87        2.4491    3   1   2         8
                43.93          6.24        2.3932    0   4   1         4
                43.99         11.97        2.3902    1   2   3         8
                44.48          1.16        2.3649    2   1   3         8
                44.76          2.89        2.3510    4   0   0         2
                45.41         11.65        2.3193    1   4   1         8
                46.81          1.23        2.2537    3   2   2         8
                47.78         12.11        2.2102    4   1   1         8
                47.94         10.14        2.2034    3   3   1         8
                48.31          1.24        2.1876    2   2   3         8
                49.14          8.96        2.1528    0   4   2         4
                49.60          2.45        2.1340    0   0   4         2
                49.63          2.64        2.1329    2   4   1         8
                50.29          3.73        2.1068    3   0   3         4
                50.29          1.17        2.1067    1   3   3         8
                50.50          5.06        2.0985    1   4   2         8
                51.42          1.90        2.0634    4   2   1         8
                51.48          1.72        2.0613    3   1   3         8
                52.13          2.02        2.0372    1   1   4         8
                52.85          9.51        2.0115    3   3   2         8
                54.23          2.94        1.9640    2   3   3         8
                54.43          3.82        1.9574    2   4   2         8
                54.86          1.60        1.9432    2   0   4         4
                54.93         12.76        1.9407    3   2   3         8
                55.59          2.67        1.9195    4   3   0         4
                55.98          3.09        1.9074    2   1   4         8
                56.11          4.30        1.9033    4   2   2         8
                56.14          8.76        1.9022    3   4   1         8
                57.11          2.65        1.8727    4   3   1         8
                58.33          2.49        1.8367    5   0   1         4
                59.41          3.00        1.8064    5   1   1         8
================================================================================
       XPOW Copyright 1993 Bob Downs, Ranjini Swaminathan and Kurt Bartelmehs
  For reference, see Downs et al. (1993) American Mineralogist 78, 1104-1107.