      Liebenbergite
      Ottonello G, Della Giusta A, Molin G M
      American Mineralogist 74 (1989) 411-421
      Cation ordering in Ni-Mg olivines
      sample Ni.63, synthesized at 900 C, then quenched
      Mg.634Ni1.363SiO4
      _database_code_amcsd 0001224
      CELL PARAMETERS:   4.7393 10.1620  5.9330   90.000   90.000   90.000
      SPACE GROUP: Pbnm      
      X-RAY WAVELENGTH:     1.790290
      Cell Volume:    285.738
      Density (g/cm3):      4.341
      MAX. ABS. INTENSITY / VOLUME**2:      15.82824422    
      RIR:      1.702
      RIR based on corundum from Acta Crystallographica A38 (1982) 733-739
               2-THETA      INTENSITY    D-SPACING   H   K   L   Multiplicity
                20.29         27.81        5.0810    0   2   0         2
                24.06         21.36        4.2952    1   1   0         4
                26.82         15.35        3.8592    0   2   1         4
                27.98          6.70        3.7029    1   0   1         4
                29.82         34.25        3.4791    1   1   1         8
                29.94          5.06        3.4657    1   2   0         4
                34.81          2.76        2.9925    1   2   1         8
                35.13          1.50        2.9665    0   0   2         2
                37.91         73.54        2.7558    1   3   0         4
                40.90         25.39        2.5618    0   2   2         4
                41.26          8.87        2.5405    0   4   0         2
                41.97         50.57        2.4993    1   3   1         8
                43.03        100.00        2.4409    1   1   2         8
                44.39         10.71        2.3696    2   0   0         2
                45.08          7.79        2.3354    0   4   1         4
                45.65          3.77        2.3077    2   1   0         4
                46.81         14.54        2.2537    1   2   2         8
                47.13          9.90        2.2391    1   4   0         4
                49.19          7.03        2.1508    2   1   1         8
                49.27          1.98        2.1476    2   2   0         4
                52.64         12.57        2.0190    1   3   2         8
                55.28          3.80        1.9296    0   4   2         4
                57.27          6.95        1.8679    1   5   0         4
                59.78          5.40        1.7964    1   1   3         8
================================================================================
       XPOW Copyright 1993 Bob Downs, Ranjini Swaminathan and Kurt Bartelmehs
  For reference, see Downs et al. (1993) American Mineralogist 78, 1104-1107.