      Liebenbergite
      Ottonello G, Della Giusta A, Molin G M
      American Mineralogist 74 (1989) 411-421
      Cation ordering in Ni-Mg olivines
      sample Ni.75, heated to 1150 C, then quenched
      Mg.505Ni1.492SiO4
      _database_code_amcsd 0001228
      CELL PARAMETERS:   4.7350 10.1526  5.9278   90.000   90.000   90.000
      SPACE GROUP: Pbnm      
      X-RAY WAVELENGTH:     1.790290
      Cell Volume:    284.965
      Density (g/cm3):      4.449
      MAX. ABS. INTENSITY / VOLUME**2:      16.19778658    
      RIR:      1.700
      RIR based on corundum from Acta Crystallographica A38 (1982) 733-739
               2-THETA      INTENSITY    D-SPACING   H   K   L   Multiplicity
                20.31         20.07        5.0763    0   2   0         2
                24.08         20.52        4.2912    1   1   0         4
                26.85         13.65        3.8557    0   2   1         4
                28.00          6.44        3.6996    1   0   1         4
                29.85         44.28        3.4760    1   1   1         8
                29.96          4.92        3.4625    1   2   0         4
                34.84          2.61        2.9898    1   2   1         8
                35.16          2.45        2.9639    0   0   2         2
                37.95         76.37        2.7533    1   3   0         4
                40.94         29.51        2.5596    0   2   2         4
                41.30         10.08        2.5382    0   4   0         2
                42.01         57.94        2.4971    1   3   1         8
                43.07        100.00        2.4387    1   1   2         8
                44.43         12.25        2.3675    2   0   0         2
                45.12          8.59        2.3333    0   4   1         4
                45.69          3.70        2.3056    2   1   0         4
                46.85         14.64        2.2516    1   2   2         8
                47.18         10.07        2.2370    1   4   0         4
                49.24          6.54        2.1488    2   1   1         8
                49.32          1.21        2.1456    2   2   0         4
                52.69         11.00        2.0172    1   3   2         8
                55.33          3.05        1.9279    0   4   2         4
                57.33          6.17        1.8662    1   5   0         4
                59.83          6.89        1.7948    1   1   3         8
================================================================================
       XPOW Copyright 1993 Bob Downs, Ranjini Swaminathan and Kurt Bartelmehs
  For reference, see Downs et al. (1993) American Mineralogist 78, 1104-1107.