      Liebenbergite
      Ottonello G, Della Giusta A, Molin G M
      American Mineralogist 74 (1989) 411-421
      Cation ordering in Ni-Mg olivines
      sample Ni.75, synthesized at 910 C, then quenched
      Mg.505Ni1.492SiO4
      _database_code_amcsd 0001227
      CELL PARAMETERS:   4.7339 10.1583  5.9303   90.000   90.000   90.000
      SPACE GROUP: Pbnm      
      X-RAY WAVELENGTH:     1.790290
      Cell Volume:    285.179
      Density (g/cm3):      4.518
      MAX. ABS. INTENSITY / VOLUME**2:      17.30408445    
      RIR:      1.788
      RIR based on corundum from Acta Crystallographica A38 (1982) 733-739
               2-THETA      INTENSITY    D-SPACING   H   K   L   Multiplicity
                20.30         22.46        5.0792    0   2   0         2
                24.08         23.77        4.2909    1   1   0         4
                26.83         12.81        3.8577    0   2   1         4
                28.00          5.96        3.6997    1   0   1         4
                29.84         41.98        3.4763    1   1   1         8
                29.96          4.64        3.4630    1   2   0         4
                34.84          2.50        2.9905    1   2   1         8
                35.14          1.69        2.9652    0   0   2         2
                37.93         75.53        2.7541    1   3   0         4
                40.92         30.56        2.5607    0   2   2         4
                41.28         10.58        2.5396    0   4   0         2
                42.00         54.62        2.4979    1   3   1         8
                43.06        100.00        2.4394    1   1   2         8
                44.44         12.51        2.3670    2   0   0         2
                45.09          7.91        2.3345    0   4   1         4
                45.70          3.32        2.3052    2   1   0         4
                46.84         13.68        2.2523    1   2   2         8
                47.16          9.26        2.2379    1   4   0         4
                49.24          6.03        2.1486    2   1   1         8
                49.32          1.52        2.1454    2   2   0         4
                52.67         11.86        2.0179    1   3   2         8
                55.30          3.27        1.9288    0   4   2         4
                57.30          6.56        1.8670    1   5   0         4
                59.81          6.37        1.7954    1   1   3         8
================================================================================
       XPOW Copyright 1993 Bob Downs, Ranjini Swaminathan and Kurt Bartelmehs
  For reference, see Downs et al. (1993) American Mineralogist 78, 1104-1107.