      Liebenbergite
      Ottonello G, Della Giusta A, Molin G M
      American Mineralogist 74 (1989) 411-421
      Cation ordering in Ni-Mg olivines
      sample Ni.63, heated to 800 C, then quenched
      Mg.634Ni1.363SiO4
      _database_code_amcsd 0001225
      CELL PARAMETERS:   4.7345 10.1623  5.9317   90.000   90.000   90.000
      SPACE GROUP: Pbnm      
      X-RAY WAVELENGTH:     1.790290
      Cell Volume:    285.394
      Density (g/cm3):      4.378
      MAX. ABS. INTENSITY / VOLUME**2:      16.32407211    
      RIR:      1.740
      RIR based on corundum from Acta Crystallographica A38 (1982) 733-739
               2-THETA      INTENSITY    D-SPACING   H   K   L   Multiplicity
                20.29         25.51        5.0812    0   2   0         2
                24.08         21.96        4.2916    1   1   0         4
                26.83         14.97        3.8589    0   2   1         4
                28.00          6.46        3.7003    1   0   1         4
                29.84         35.74        3.4770    1   1   1         8
                29.95          4.96        3.4639    1   2   0         4
                34.83          2.69        2.9912    1   2   1         8
                35.13          1.58        2.9659    0   0   2         2
                37.92         73.28        2.7549    1   3   0         4
                40.91         26.73        2.5614    0   2   2         4
                41.26          9.05        2.5406    0   4   0         2
                41.99         52.38        2.4986    1   3   1         8
                43.05        100.00        2.4399    1   1   2         8
                44.44         10.92        2.3672    2   0   0         2
                45.08          7.65        2.3354    0   4   1         4
                45.69          3.45        2.3055    2   1   0         4
                46.82         14.82        2.2529    1   2   2         8
                47.14          9.88        2.2386    1   4   0         4
                49.23          6.54        2.1489    2   1   1         8
                49.31          1.82        2.1458    2   2   0         4
                52.65         12.14        2.0185    1   3   2         8
                55.28          3.65        1.9295    0   4   2         4
                57.28          7.06        1.8676    1   5   0         4
                59.80          5.63        1.7958    1   1   3         8
================================================================================
       XPOW Copyright 1993 Bob Downs, Ranjini Swaminathan and Kurt Bartelmehs
  For reference, see Downs et al. (1993) American Mineralogist 78, 1104-1107.