      Liebenbergite
      Ottonello G, Della Giusta A, Molin G M
      American Mineralogist 74 (1989) 411-421
      Cation ordering in Ni-Mg olivines
      sample Ni.63, heated to 1150 C, then quenched
      Mg.634Ni1.363SiO4
      _database_code_amcsd 0001226
      CELL PARAMETERS:   4.7370 10.1616  5.9337   90.000   90.000   90.000
      SPACE GROUP: Pbnm      
      X-RAY WAVELENGTH:     1.790290
      Cell Volume:    285.622
      Density (g/cm3):      4.390
      MAX. ABS. INTENSITY / VOLUME**2:      15.92103199    
      RIR:      1.693
      RIR based on corundum from Acta Crystallographica A38 (1982) 733-739
               2-THETA      INTENSITY    D-SPACING   H   K   L   Multiplicity
                20.29         23.18        5.0808    0   2   0         2
                24.07         20.57        4.2934    1   1   0         4
                26.82         14.63        3.8593    0   2   1         4
                27.99          6.45        3.7020    1   0   1         4
                29.83         39.59        3.4784    1   1   1         8
                29.95          5.08        3.4647    1   2   0         4
                34.82          2.73        2.9920    1   2   1         8
                35.12          2.02        2.9669    0   0   2         2
                37.92         74.39        2.7553    1   3   0         4
                40.90         27.55        2.5620    0   2   2         4
                41.26          9.34        2.5404    0   4   0         2
                41.98         54.81        2.4990    1   3   1         8
                43.03        100.00        2.4408    1   1   2         8
                44.41         11.40        2.3685    2   0   0         2
                45.08          8.09        2.3354    0   4   1         4
                45.67          3.61        2.3067    2   1   0         4
                46.81         14.81        2.2535    1   2   2         8
                47.14          9.99        2.2388    1   4   0         4
                49.21          6.74        2.1499    2   1   1         8
                49.29          1.48        2.1467    2   2   0         4
                52.64         11.50        2.0189    1   3   2         8
                55.28          3.26        1.9297    0   4   2         4
                57.28          6.59        1.8677    1   5   0         4
                59.77          6.10        1.7964    1   1   3         8
================================================================================
       XPOW Copyright 1993 Bob Downs, Ranjini Swaminathan and Kurt Bartelmehs
  For reference, see Downs et al. (1993) American Mineralogist 78, 1104-1107.