      Manganilvaite
      Zotov N, Kockelmann W, Jacobsen S D, Mitov I, Paneva D, Vassileva R D, Bonev I K
      The Canadian Mineralogist 43 (2005) 1043-1053
      Structure and cation order in manganilvaite:
      a combined X-ray-diffraction, neutron-diffraction and mossbauer study
      Sample: Ossikovo Pb-Zn skarn, Rhodope Mountains, Bulgaria
      Sample: powder X-ray + neutron analysis
      _database_code_amcsd 0006024
      CELL PARAMETERS:  13.0250  8.8514  5.8486   90.000   90.167   90.000
      SPACE GROUP: P2_1/a    
      X-RAY WAVELENGTH:     1.790290
      Cell Volume:    674.279
      Density (g/cm3):      3.486
      MAX. ABS. INTENSITY / VOLUME**2:      6.047842850    
      RIR:      0.810
      RIR based on corundum from Acta Crystallographica A38 (1982) 733-739
               2-THETA      INTENSITY    D-SPACING   H   K   L   Multiplicity
                14.05          1.58        7.3209    1   1   0         4
                15.80         22.66        6.5125    2   0   0         2
                17.61         20.99        5.8486    0   0   1         2
                19.65          3.14        5.2456    2   1   0         4
                21.14         12.98        4.8796    0   1   1         4
                22.61         42.48        4.5658    1   1   1         4
                23.34         18.71        4.4257    0   2   0         2
                26.53         13.83        3.9005    2   1   1         4
                26.55          5.20        3.8980    3   1   0         4
                28.31          1.50        3.6605    2   2   0         4
                29.39          9.90        3.5292    0   2   1         4
                30.46          2.05        3.4078   -1   2   1         4
                30.49          8.95        3.4048    1   2   1         4
                31.91          5.70        3.2562    4   0   0         2
                32.00          1.47        3.2475   -3   1   1         4
                32.08         12.74        3.2397    3   1   1         4
                33.57          1.74        3.0993    3   2   0         4
                35.65         38.12        2.9243    0   0   2         2
                36.25         30.77        2.8776    1   3   0         4
                36.63        100.00        2.8485   -4   0   1         2
                36.72         42.16        2.8415    4   0   1         2
                38.12          4.23        2.7409   -3   2   1         4
                38.19         29.69        2.7362    3   2   1         4
                38.47         28.33        2.7172   -1   1   2         4
                38.51         34.59        2.7141    1   1   2         4
                38.91         46.96        2.6875    2   3   0         4
                39.73          1.28        2.6342    0   3   1         4
                39.91          4.85        2.6228    4   2   0         4
                40.56         10.29        2.5826   -1   3   1         4
                40.58          1.57        2.5813    1   3   1         4
                40.99          8.27        2.5568   -2   1   2         4
                41.07          7.03        2.5517    2   1   2         4
                42.99         44.97        2.4431   -2   3   1         4
                43.03         11.13        2.4409    2   3   1         4
                43.04          3.02        2.4403    3   3   0         4
                43.05          5.55        2.4398    0   2   2         4
                43.86          1.60        2.3970    1   2   2         4
                43.89          7.12        2.3953   -4   2   1         4
                43.97         40.10        2.3911    4   2   1         4
                44.94         12.06        2.3421   -3   1   2         4
                45.06         11.80        2.3363    3   1   2         4
                45.80          1.02        2.3003   -5   1   1         4
                45.90          8.28        2.2957    5   1   1         4
                46.81          4.20        2.2534   -3   3   1         4
                48.34          2.90        2.1864    4   3   0         4
                48.45         11.83        2.1816    1   4   0         4
                48.51         11.09        2.1789   -4   0   2         2
                48.66          8.69        2.1726    4   0   2         2
                49.72          1.47        2.1292   -3   2   2         4
                49.83          2.86        2.1248    3   2   2         4
                50.06         33.20        2.1157   -4   1   2         4
                50.21         33.33        2.1099    4   1   2         4
                50.58         17.65        2.0952    2   4   0         4
                50.61          1.61        2.0941    5   2   1         4
                51.77          2.06        2.0504    1   3   2         4
                51.80          1.15        2.0493   -4   3   1         4
                51.95          2.17        2.0437    1   4   1         4
                52.13          1.70        2.0371   -6   0   1         2
                53.71          1.20        1.9816    6   1   1         4
                53.76          3.82        1.9800   -2   3   2         4
                53.83          4.10        1.9776    2   3   2         4
                53.96          6.53        1.9730   -2   4   1         4
                54.00          8.61        1.9719    2   4   1         4
                54.01          5.67        1.9715    3   4   0         4
                54.51          2.55        1.9548   -4   2   2         4
                54.64          1.39        1.9502    4   2   2         4
                54.67          1.56        1.9495    0   0   3         2
                56.09          4.20        1.9039    0   1   3         4
                56.14          5.95        1.9024   -5   1   2         4
                56.31          6.94        1.8972    5   1   2         4
                56.71          3.87        1.8846   -1   1   3         4
                57.28          4.44        1.8675    3   4   1         4
                57.76          6.36        1.8535   -5   3   1         4
                57.84          1.06        1.8510    5   3   1         4
                57.96          4.69        1.8476    6   2   1         4
                58.56          1.16        1.8302    4   4   0         4
                58.61          1.17        1.8288   -2   1   3         4
                58.89          1.58        1.8209    7   1   0         4
================================================================================
       XPOW Copyright 1993 Bob Downs, Ranjini Swaminathan and Kurt Bartelmehs
  For reference, see Downs et al. (1993) American Mineralogist 78, 1104-1107.