      Mereiterite
      Giester G, Rieck B
      European Journal of Mineralogy 7 (1995) 559-566
      Mereiterite, K2Fe[SO4]2.4H2O, a new leonite-type mineral from
      the Lavrion Mining District, Greece
      Locality: Lavrion Mining District, Greece
      _database_code_amcsd 0006597
      CELL PARAMETERS:  11.8410  9.5530  9.9420   90.000   94.870   90.000
      SPACE GROUP: C2/m      
      X-RAY WAVELENGTH:     1.790290
      Cell Volume:   1120.550
      Density (g/cm3):      2.360
      MAX. ABS. INTENSITY / VOLUME**2:      6.804949402    
      RIR:      1.346
      RIR based on corundum from Acta Crystallographica A38 (1982) 733-739
               2-THETA      INTENSITY    D-SPACING   H   K   L   Multiplicity
                16.88         32.18        6.0994   -1   1   1         4
                17.46         10.07        5.8991    2   0   0         2
                17.77         12.64        5.7943    1   1   1         4
                19.56          6.58        5.2689   -2   0   1         2
                20.82         26.50        4.9531    0   0   2         2
                21.10          2.15        4.8893    2   0   1         2
                21.60         30.91        4.7765    0   2   0         2
                24.46          7.99        4.2258   -1   1   2         4
                25.72         11.10        4.0223    1   1   2         4
                28.50          1.01        3.6366    3   1   0         4
                29.30          7.36        3.5388   -2   2   1         4
                29.60         65.06        3.5040   -3   1   1         4
                30.18        100.00        3.4382    0   2   2         4
                30.38          3.97        3.4167    2   2   1         4
                31.18         52.21        3.3303    3   1   1         4
                33.81          6.19        3.0788   -1   1   3         4
                33.86          6.66        3.0743    1   3   0         4
                34.14         16.72        3.0497   -2   2   2         4
                34.16          2.01        3.0477   -3   1   2         4
                34.82          1.66        2.9916   -2   0   3         2
                35.27          4.07        2.9547   -1   3   1         4
                35.33          2.63        2.9496    4   0   0         2
                35.73          2.02        2.9180    1   3   1         4
                35.99          7.20        2.8972    2   2   2         4
                36.02          7.13        2.8949   -4   0   1         2
                37.53         15.51        2.7824    2   0   3         2
                37.80          7.26        2.7635    4   0   1         2
                38.48          2.06        2.7162    0   2   3         4
                39.67          3.63        2.6383   -1   3   2         4
                39.73         12.47        2.6345   -4   0   2         2
                40.50          2.46        2.5866    1   3   2         4
                41.17          1.93        2.5461   -3   1   3         4
                41.35          3.50        2.5354   -2   2   3         4
                41.79         11.53        2.5096    4   2   0         4
                42.38          6.57        2.4765    0   0   4         2
                42.39          2.30        2.4757   -4   2   1         4
                42.96          1.94        2.4446    4   0   2         2
                43.72         15.45        2.4043    2   2   3         4
                43.95          3.64        2.3920    4   2   1         4
                44.03         19.65        2.3883    0   4   0         2
                44.03         12.06        2.3879   -1   1   4         4
                44.35          4.78        2.3714    3   3   1         4
                44.69          1.71        2.3544    3   1   3         4
                45.55          2.00        2.3125    1   1   4         4
                45.83          4.46        2.2989   -4   0   3         2
                46.33          2.09        2.2753   -1   3   3         4
                47.43          4.41        2.2257    1   3   3         4
                48.60         10.68        2.1752   -2   4   1         4
                49.18          1.96        2.1512    0   4   2         4
                49.26          2.01        2.1477   -5   1   2         4
                49.31          4.34        2.1459    2   4   1         4
                50.13          4.98        2.1129   -2   2   4         4
                51.21          6.38        2.0714   -4   2   3         4
                52.24          1.98        2.0331   -3   3   3         4
                52.70          1.36        2.0168    5   1   2         4
                52.86          3.39        2.0111    2   2   4         4
                53.72          1.03        1.9813   -4   0   4         2
                54.16         13.87        1.9664    6   0   0         2
                54.95          1.56        1.9402   -1   1   5         4
                55.22          3.89        1.9314    3   3   3         4
                55.32          3.06        1.9282   -2   0   5         2
                55.96          1.36        1.9081    1   3   4         4
                56.56          4.13        1.8893    1   1   5         4
                57.62          1.34        1.8574   -1   5   1         4
                57.67          3.35        1.8561    4   4   0         4
                57.94          4.12        1.8481    1   5   1         4
                58.14          1.57        1.8423   -4   4   1         4
                58.57          5.85        1.8301   -4   2   4         4
                58.85          1.53        1.8220    4   0   4         2
                59.39          3.78        1.8070    4   4   1         4
================================================================================
       XPOW Copyright 1993 Bob Downs, Ranjini Swaminathan and Kurt Bartelmehs
  For reference, see Downs et al. (1993) American Mineralogist 78, 1104-1107.