      Metahohmannite
      Scordari F, Ventruti G, Gualtieri A F
      American Mineralogist 89 (2004) 365-370
      The structure of metahohmannite, Fe2[O(SO4)2].4H2O,
      by in situ synchrotron powder diffraction
      _database_code_amcsd 0003421
      CELL PARAMETERS:   7.3484  9.7710  7.1521   91.684   98.523   86.390
      SPACE GROUP: P-1       
      X-RAY WAVELENGTH:     1.790290
      Cell Volume:    506.746
      Density (g/cm3):      2.625
      MAX. ABS. INTENSITY / VOLUME**2:      6.655582745    
      RIR:      1.184
      RIR based on corundum from Acta Crystallographica A38 (1982) 733-739
               2-THETA      INTENSITY    D-SPACING   H   K   L   Multiplicity
                10.54         71.79        9.7496    0   1   0         2
                14.18         71.58        7.2545    1   0   0         2
                14.54         40.68        7.0717    0   0   1         2
                17.18        100.00        5.9927    1   1   0         2
                17.82          6.39        5.7805    0  -1   1         2
                18.17          4.93        5.6699    0   1   1         2
                18.19          1.20        5.6615   -1   1   0         2
                18.80          1.12        5.4817   -1   0   1         2
                21.16         15.66        4.8748    0   2   0         2
                21.82          1.21        4.7289    1   0   1         2
                22.15          2.00        4.6592   -1   1   1         2
                24.05         90.31        4.2973    1   1   1         2
                24.53         13.45        4.2136    1  -1   1         2
                24.84          7.24        4.1620    1   2   0         2
                25.52         12.58        4.0522    0  -2   1         2
                26.27         15.72        3.9395   -1   2   0         2
                27.56         10.35        3.7575   -1  -2   1         2
                28.57          5.65        3.6272    2   0   0         2
                29.31         22.42        3.5379   -1   2   1         2
                30.18          3.65        3.4388   -2   0   1         2
                30.19          3.95        3.4376    1   2   1         2
                30.72          7.02        3.3797   -1   0   2         2
                30.97         31.71        3.3525    1  -2   1         2
                31.04         11.16        3.3458    0  -1   2         2
                31.13          3.49        3.3356   -2   1   0         2
                31.36          1.60        3.3124   -2  -1   1         2
                31.98          4.85        3.2499    0   3   0         2
                32.07         45.10        3.2408   -1  -1   2         2
                32.72          8.99        3.1778   -2   1   1         2
                33.04         39.69        3.1478   -1   1   2         2
                34.61          2.11        3.0093    1   0   2         2
                34.76          2.09        2.9964    2   2   0         2
                35.01         50.61        2.9760    0  -3   1         2
                35.37          5.91        2.9463    2   1   1         2
                35.57          3.44        2.9305    0   3   1         2
                36.08          1.27        2.8902    0  -2   2         2
                36.24          1.52        2.8781    2  -1   1         2
                36.35          2.12        2.8695    1  -1   2         2
                36.81          1.81        2.8349    0   2   2         2
                36.87          1.08        2.8308   -2   2   0         2
                38.33         30.76        2.7264   -2   2   1         2
                38.37          4.18        2.7241   -1   3   1         2
                38.45          1.88        2.7182   -1   2   2         2
                38.57          1.02        2.7102    1   3   1         2
                39.01          9.74        2.6812   -2  -1   2         2
                39.52         12.12        2.6476    1  -3   1         2
                39.71         33.43        2.6353    2   2   1         2
                41.06          5.42        2.5524    1  -2   2         2
                42.80          5.71        2.4534   -2  -2   2         2
                44.48          2.98        2.3652   -3  -1   1         2
                44.64          4.37        2.3572    0   0   3         2
                44.74          1.09        2.3521   -2   3   0         2
                44.88          7.66        2.3452   -1   0   3         2
                45.19          4.67        2.3296   -2   2   2         2
                45.49          1.85        2.3152   -3   1   0         2
                45.79          4.45        2.3009   -1  -1   3         2
                46.02          2.52        2.2901    0   4   1         2
                46.03          3.46        2.2894   -1   3   2         2
                46.07          2.52        2.2877   -2   3   1         2
                47.65          4.08        2.2161    1   3   2         2
                47.78          1.88        2.2103   -3  -2   1         2
                48.02          1.78        2.2000    1  -3   2         2
                48.95          2.04        2.1607   -2  -3   2         2
                49.24          8.04        2.1487    2   2   2         2
                49.34          1.29        2.1448    1  -4   1         2
                49.47          1.41        2.1392    0  -2   3         2
                49.85          6.02        2.1240   -2   0   3         2
                50.03          1.14        2.1170    3  -1   1         2
                50.03          1.94        2.1169   -3   2   0         2
                50.29          1.01        2.1068    2  -2   2         2
                50.32          2.37        2.1054    0   2   3         2
                50.95          3.33        2.0810    2   4   0         2
                51.25          1.95        2.0698   -3   1   2         2
                52.18          7.77        2.0354    3   2   1         2
                52.18          1.26        2.0353   -2   3   2         2
                52.76          1.36        2.0148   -3  -2   2         2
                53.25          2.41        1.9976    3   3   0         2
                53.37          2.50        1.9933   -3  -3   1         2
                53.52          2.60        1.9880    0   4   2         2
                53.58          2.60        1.9862   -2  -2   3         2
                54.06          6.34        1.9697   -2   4   0         2
                55.01          1.66        1.9383   -1  -3   3         2
                55.11          3.14        1.9352    2   3   2         2
                55.36          3.49        1.9268    0  -3   3         2
                56.55          1.37        1.8896    0  -5   1         2
                57.13          4.00        1.8721    3   0   2         2
                57.67          2.07        1.8560    2   0   3         2
                58.69          4.88        1.8267    3  -1   2         2
                58.84          1.70        1.8223   -4   0   1         2
                59.15          6.31        1.8136    4   0   0         2
================================================================================
       XPOW Copyright 1993 Bob Downs, Ranjini Swaminathan and Kurt Bartelmehs
  For reference, see Downs et al. (1993) American Mineralogist 78, 1104-1107.