      Moganite
      Miehe G, Graetsch H
      European Journal of Mineralogy 4 (1992) 693-706
      Crystal structure of moganite: a new structure type of silica
      _database_code_amcsd 0006460
      CELL PARAMETERS:   8.7580  4.8760 10.7150   90.000   90.080   90.000
      SPACE GROUP: I2/a      
      X-RAY WAVELENGTH:     1.790290
      Cell Volume:    457.573
      Density (g/cm3):      2.616
      MAX. ABS. INTENSITY / VOLUME**2:      7.465981125    
      RIR:      1.332
      RIR based on corundum from Acta Crystallographica A38 (1982) 733-739
               2-THETA      INTENSITY    D-SPACING   H   K   L   Multiplicity
                23.27         46.27        4.4381    0   1   1         4
                23.59         22.52        4.3790    2   0   0         2
                30.60         47.44        3.3928   -2   0   2         2
                30.64         75.51        3.3882    2   0   2         2
                31.13        100.00        3.3356   -1   1   2         4
                31.15         57.25        3.3334    1   1   2         4
                33.37         26.62        3.1180   -2   1   1         4
                33.39         12.03        3.1162    2   1   1         4
                36.20         16.27        2.8814    0   1   3         4
                41.88          1.19        2.5047    3   1   0         4
                43.08          9.05        2.4380    0   2   0         2
                43.69          1.32        2.4058    2   1   3         4
                45.93          3.22        2.2944   -1   2   1         4
                45.93          4.91        2.2940    1   2   1         4
                46.09          7.36        2.2865   -2   0   4         2
                46.51          4.12        2.2670    1   1   4         4
                48.26          6.63        2.1895    4   0   0         2
                49.70          9.21        2.1301    2   2   0         4
                52.39          1.80        2.0278   -4   0   2         2
                52.45          3.70        2.0258    4   0   2         2
                54.26          2.90        1.9631    4   1   1         4
                58.55         10.72        1.8306   -3   1   4         4
                58.62         12.01        1.8284    3   1   4         4
                59.53         12.53        1.8030    0   2   4         4
                59.96          4.46        1.7913   -2   1   5         4
================================================================================
       XPOW Copyright 1993 Bob Downs, Ranjini Swaminathan and Kurt Bartelmehs
  For reference, see Downs et al. (1993) American Mineralogist 78, 1104-1107.