      Nahcolite
      Zachariasen W
      Journal of Chemical Physics 1 (1933) 634-639
      The Crystal Lattice of Sodium Bicarbonate, Na H C O3
      _cod_database_code 1011016
      _database_code_amcsd 0017923
      CELL PARAMETERS:   7.5100  9.7000  3.5300   90.000   93.320   90.000
      SPACE GROUP: P2_1/n    
      X-RAY WAVELENGTH:     1.790290
      Cell Volume:    256.718
      Density (g/cm3):      2.173
      MAX. ABS. INTENSITY / VOLUME**2:      3.512856560    
      RIR:      0.755
      RIR based on corundum from Acta Crystallographica A38 (1982) 733-739
               2-THETA      INTENSITY    D-SPACING   H   K   L   Multiplicity
                17.36          4.31        5.9320    1   1   0         4
                21.27         14.96        4.8500    0   2   0         2
                27.63          2.26        3.7487    2   0   0         2
                29.67         26.62        3.4967    2   1   0         4
                31.36          3.88        3.3123    0   1   1         4
                31.85         18.80        3.2629   -1   0   1         2
                33.34         22.25        3.1205    1   0   1         2
                33.65         30.98        3.0926   -1   1   1         4
                35.08         90.66        2.9706    1   1   1         4
                35.10         15.73        2.9690    1   3   0         4
                35.13         54.95        2.9660    2   2   0         4
                36.60          1.14        2.8509    0   2   1         4
                38.62         23.96        2.7073   -1   2   1         4
                39.89        100.00        2.6243    1   2   1         4
                43.42          1.33        2.4201    3   1   0         4
                45.34         30.49        2.3223   -2   2   1         4
                45.66          2.13        2.3073    1   4   0         4
                47.52         30.00        2.2215    3   2   0         4
                50.55          1.87        2.0967   -3   0   1         2
                51.85         16.67        2.0474   -2   3   1         4
                52.16         13.18        2.0361    2   4   0         4
                53.24          5.57        1.9977    0   4   1         4
                53.61         17.48        1.9850    3   0   1         2
                53.83          7.39        1.9773    3   3   0         4
                53.87          1.27        1.9760    2   3   1         4
                54.76          7.58        1.9463   -1   4   1         4
                55.44          5.98        1.9245   -3   2   1         4
                55.74         21.09        1.9148    1   4   1         4
                56.93          4.15        1.8781    1   5   0         4
                57.05          2.55        1.8743    4   0   0         2
                58.32          2.54        1.8371    3   2   1         4
================================================================================
       XPOW Copyright 1993 Bob Downs, Ranjini Swaminathan and Kurt Bartelmehs
  For reference, see Downs et al. (1993) American Mineralogist 78, 1104-1107.