      Poppiite
      Brigatti M F, Caprilli E, Marchesini M
      American Mineralogist 91 (2006) 584-588
      Poppiite, the V3+ end-member of the pumpellyite group: Description and crystal structure
      Locality: Gambatesa mine, val Graveglia, Genova, Northern Italy
      _database_code_amcsd 0004139
      CELL PARAMETERS:  19.2889  6.0444  8.8783   90.000   97.328   90.000
      SPACE GROUP: C2/m      
      X-RAY WAVELENGTH:     1.790290
      Cell Volume:   1026.665
      Density (g/cm3):      3.450
      MAX. ABS. INTENSITY / VOLUME**2:      4.816809337    
      RIR:      0.652
      RIR based on corundum from Acta Crystallographica A38 (1982) 733-739
               2-THETA      INTENSITY    D-SPACING   H   K   L   Multiplicity
                10.74         15.40        9.5657    2   0   0         2
                11.67         15.10        8.8058    0   0   1         2
                14.83          6.77        6.9343   -2   0   1         2
                16.87         13.74        6.1024    2   0   1         2
                21.01          7.14        4.9097   -1   1   1         4
                21.57         47.41        4.7828    4   0   0         2
                21.77         35.91        4.7397    1   1   1         4
                23.22         10.45        4.4476   -4   0   1         2
                23.46         16.49        4.4029    0   0   2         2
                24.56          2.32        4.2086   -2   0   2         2
                25.40          6.16        4.0718   -3   1   1         4
                25.90          4.83        3.9946    4   0   1         2
                27.11         73.52        3.8188    2   0   2         2
                27.28          2.17        3.7960    3   1   1         4
                29.08          2.87        3.5655   -1   1   2         4
                29.92         13.97        3.4672   -4   0   2         2
                30.20          4.49        3.4357    1   1   2         4
                31.94          1.72        3.2537   -3   1   2         4
                33.06          2.97        3.1466   -5   1   1         4
                33.25          1.35        3.1285   -6   0   1         2
                34.12         15.73        3.0512    4   0   2         2
                34.46          8.34        3.0222    0   2   0         2
                34.97          5.44        2.9797    3   1   2         4
                35.51         20.24        2.9353    0   0   3         2
                35.52        100.00        2.9343    5   1   1         4
                35.80         20.13        2.9122   -2   0   3         2
                36.18          2.51        2.8827    6   0   1         2
                36.19         14.56        2.8818    2   2   0         4
                36.50         16.69        2.8585    0   2   1         4
                37.70         10.77        2.7705   -2   2   1         4
                37.92         62.92        2.7548   -6   0   2         2
                37.98          4.64        2.7512   -5   1   2         4
                38.56          4.72        2.7108    2   0   3         2
                38.60         12.35        2.7083    2   2   1         4
                39.37          1.14        2.6574   -4   0   3         2
                39.37         39.70        2.6572   -1   1   3         4
                40.67          4.11        2.5759    1   1   3         4
                41.02         75.16        2.5549    4   2   0         4
                41.97          7.70        2.4997   -4   2   1         4
                42.11         22.06        2.4917    0   2   2         4
                42.29          3.16        2.4814    5   1   2         4
                42.45         29.71        2.4728   -7   1   1         4
                42.77         16.04        2.4548   -2   2   2         4
                43.06          3.26        2.4389    6   0   2         2
                43.60          2.12        2.4101    4   2   1         4
                43.96          3.31        2.3914    8   0   0         2
                44.07          4.34        2.3861   -8   0   1         2
                44.39         49.04        2.3699    2   2   2         4
                44.86         14.34        2.3463    3   1   3         4
                45.26          1.37        2.3266    7   1   1         4
                45.57          2.70        2.3114   -6   0   3         2
                45.81          7.63        2.3000   -5   1   3         4
                46.27          1.98        2.2782   -4   2   2         4
                47.18          1.15        2.2368    8   0   1         2
                47.47         28.56        2.2238   -8   0   2         2
                47.84          6.68        2.2078   -2   0   4         2
                47.98         11.91        2.2014    0   0   4         2
                48.17          8.94        2.1935    6   2   0         4
                48.64          4.53        2.1736   -6   2   1         4
                49.28         27.24        2.1472    4   2   2         4
                50.32          2.10        2.1056    0   2   3         4
                50.35         12.90        2.1043   -4   0   4         2
                50.77          1.90        2.0879    2   0   4         2
                50.83          3.74        2.0859    6   2   1         4
                50.89          3.41        2.0834   -1   1   4         4
                51.37          1.82        2.0652    5   1   3         4
                52.17          1.27        2.0359   -6   2   2         4
                52.66          4.01        2.0182   -7   1   3         4
                54.71          3.56        1.9482    1   3   1         4
                55.25          6.33        1.9304   -6   0   4         2
                55.63          1.19        1.9184   -5   1   4         4
                56.02          1.60        1.9062    9   1   1         4
                56.16          3.77        1.9018    3   1   4         4
                56.28         14.31        1.8980    6   2   2         4
                56.47          1.45        1.8922   -3   3   1         4
                57.02         25.37        1.8753    8   2   0         4
                57.11          4.53        1.8728   -8   2   1         4
                57.36          4.15        1.8652    4   2   3         4
                58.36          2.88        1.8360   -6   2   3         4
================================================================================
       XPOW Copyright 1993 Bob Downs, Ranjini Swaminathan and Kurt Bartelmehs
  For reference, see Downs et al. (1993) American Mineralogist 78, 1104-1107.