      Reppiaite
      Barbier J
      European Journal of Mineralogy 8 (1996) 77-84
      Crystal structure of Ni5(AsO4)2(OH)4 and its comparison to other
      M5(XO4)2(OH)4 compounds
      _database_code_amcsd 0006613
      CELL PARAMETERS:   9.2910  9.0080  5.1490   90.000   98.700   90.000
      SPACE GROUP: C2/m      
      X-RAY WAVELENGTH:     1.790290
      Cell Volume:    425.979
      Density (g/cm3):      4.952
      MAX. ABS. INTENSITY / VOLUME**2:      24.22273157    
      RIR:      2.283
      RIR based on corundum from Acta Crystallographica A38 (1982) 733-739
               2-THETA      INTENSITY    D-SPACING   H   K   L   Multiplicity
                16.00          1.01        6.4310    1   1   0         4
                20.26         13.98        5.0898    0   0   1         2
                22.48         70.85        4.5920    2   0   0         2
                22.93         11.65        4.5040    0   2   0         2
                24.53          4.56        4.2141   -1   1   1         4
                27.25          4.80        3.8000    1   1   1         4
                28.01         15.03        3.6991   -2   0   1         2
                30.78          4.38        3.3730    0   2   1         4
                32.33         38.15        3.2155    2   2   0         4
                32.71         26.94        3.1787    2   0   1         2
                35.98         36.09        2.8986    3   1   0         4
                36.50         21.05        2.8586   -2   2   1         4
                38.88         31.59        2.6899   -3   1   1         4
                40.32         29.66        2.5971    2   2   1         4
                41.19         51.27        2.5449    0   0   2         2
                41.26        100.00        2.5408   -1   3   1         4
                42.73          2.84        2.4570   -1   1   2         4
                43.03          8.74        2.4409    1   3   1         4
                44.11          3.27        2.3840   -2   0   2         2
                44.25         12.49        2.3766    3   1   1         4
                45.89          4.02        2.2960    4   0   0         2
                46.13          3.19        2.2850    1   1   2         4
                46.84          1.70        2.2520    0   4   0         2
                47.50          1.99        2.2227   -4   0   1         2
                47.66          1.04        2.2157    0   2   2         4
                49.36         11.59        2.1437    3   3   0         4
                50.28          2.20        2.1071   -2   2   2         4
                50.57         18.34        2.0956    2   0   2         2
                51.39          9.37        2.0646   -3   1   2         4
                51.53          5.44        2.0594    0   4   1         4
                51.65         32.40        2.0550   -3   3   1         4
                51.90          1.73        2.0456    4   2   0         4
                52.55          7.40        2.0219    2   4   0         4
                53.37          8.44        1.9932   -4   2   1         4
                56.06          7.21        1.9047    3   3   1         4
                56.22          9.97        1.9000    2   2   2         4
                57.65          3.59        1.8566    1   3   2         4
                57.89          4.70        1.8496   -4   0   2         2
                58.30          4.29        1.8376    2   4   1         4
                59.65          2.13        1.7998    5   1   0         4
================================================================================
       XPOW Copyright 1993 Bob Downs, Ranjini Swaminathan and Kurt Bartelmehs
  For reference, see Downs et al. (1993) American Mineralogist 78, 1104-1107.