      Rhodesite
      Hesse K F, Liebau F, Merlino S
      Zeitschrift fur Kristallographie 199 (1992) 25-48
      Crystal structure of rhodesite, HK1-xNax+2yCa2-y{lB,3,2}[Si8O19]*(6-z)H2O,
      from three localities and its relation to other silicates with dreier double layers
      Locality: Zeilberg, Germany
      _database_code_amcsd 0011013
      CELL PARAMETERS:  23.4160  6.5550  7.0500   90.000   90.000   90.000
      SPACE GROUP: Pmam      
      X-RAY WAVELENGTH:     1.790290
      Cell Volume:   1082.118
      Density (g/cm3):      1.510
      MAX. ABS. INTENSITY / VOLUME**2:      4.180507114    
      RIR:      1.292
      RIR based on corundum from Acta Crystallographica A38 (1982) 733-739
               2-THETA      INTENSITY    D-SPACING   H   K   L   Multiplicity
                 8.77         15.28       11.7080    2   0   0         2
                14.59         11.02        7.0500    0   0   1         2
                15.70         21.56        6.5550    0   1   0         2
                16.31         62.54        6.3123    1   1   0         4
                17.05          1.15        6.0396    2   0   1         4
                17.59        100.00        5.8540    4   0   0         2
                18.01          1.85        5.7196    2   1   0         4
                20.54         43.91        5.0197    3   1   0         4
                21.95          3.40        4.7027    1   1   1         8
                22.93          4.89        4.5038    4   0   1         4
                23.25          8.16        4.4417    2   1   1         8
                23.66          5.24        4.3663    4   1   0         4
                25.29          2.85        4.0891    3   1   1         8
                27.17          7.77        3.8106    5   1   0         4
                27.91          4.05        3.7120    4   1   1         8
                29.42          5.71        3.5250    0   0   2         2
                30.96          8.51        3.3533    6   1   0         4
                32.02          9.32        3.2459    1   2   0         4
                33.52          3.29        3.1046    0   1   2         4
                33.82         42.13        3.0776    1   1   2         8
                34.39         10.36        3.0282    6   1   1         8
                34.46          8.94        3.0219    3   2   0         4
                34.49         17.67        3.0198    4   0   2         4
                34.71          5.66        3.0009    2   1   2         8
                34.97         11.96        2.9796    7   1   0         4
                35.06          8.47        2.9720    0   2   1         4
                35.62          2.42        2.9270    8   0   0         2
                36.15         33.76        2.8848    3   1   2         8
                36.48          6.40        2.8598    4   2   0         4
                38.07          4.18        2.7445    7   1   1         8
                38.10          2.21        2.7427    4   1   2         8
                39.14          9.09        2.6727    8   1   0         4
                39.48          6.11        2.6501    4   2   1         8
                40.02          4.88        2.6159    6   0   2         4
                40.48          1.43        2.5876    5   1   2         8
                41.98          6.25        2.4991    8   1   1         8
                44.03          2.38        2.3878    1   2   2         8
                44.96          2.18        2.3411    7   2   0         4
                48.41          2.13        2.1831    8   2   0         4
                49.71          4.91        2.1297    8   1   2         8
                51.86          4.53        2.0471    4   3   0         4
                52.48          1.47        2.0246   11   1   0         4
                52.80          1.07        2.0132    6   0   3         4
                54.65          1.06        1.9502    7   2   2         8
                56.01          1.30        1.9065    6   3   0         4
                56.01          1.20        1.9063    5   3   1         8
                57.19          1.47        1.8702   12   1   0         4
                57.22          1.15        1.8695   10   1   2         8
                57.63          5.15        1.8572    0   3   2         4
                57.67          2.87        1.8560    8   2   2         8
                57.70          3.02        1.8551    3   2   3         8
                58.59          2.56        1.8293    7   3   0         4
                59.08          1.66        1.8156    4   2   3         8
================================================================================
       XPOW Copyright 1993 Bob Downs, Ranjini Swaminathan and Kurt Bartelmehs
  For reference, see Downs et al. (1993) American Mineralogist 78, 1104-1107.