      Srebrodolskite
      Berggren J
      Acta Chemica Scandinavica 25 (1971) 3616-3624
      Refinement of the crystal structure of dicalcium ferrite, Ca2Fe2O5
      _database_code_amcsd 0011930
      CELL PARAMETERS:   5.4253 14.7687  5.5980   90.000   90.000   90.000
      SPACE GROUP: Pnma      
      X-RAY WAVELENGTH:     1.790290
      Cell Volume:    448.538
      Density (g/cm3):      4.025
      MAX. ABS. INTENSITY / VOLUME**2:      24.30753767    
      RIR:      2.819
      RIR based on corundum from Acta Crystallographica A38 (1982) 733-739
               2-THETA      INTENSITY    D-SPACING   H   K   L   Multiplicity
                13.93         12.87        7.3843    0   2   0         2
                19.69          5.51        5.2346    0   1   1         4
                26.57         14.66        3.8959    1   0   1         4
                27.49          3.09        3.7670    1   1   1         8
                28.03         11.23        3.6968    0   3   1         4
                28.06          9.72        3.6922    0   4   0         2
                34.08          8.21        3.0550    1   3   1         8
                37.30         36.48        2.7990    0   0   2         2
                38.54         43.35        2.7127    2   0   0         2
                39.03        100.00        2.6799    1   4   1         8
                39.21          1.51        2.6680    2   1   0         4
                40.08          9.62        2.6124    0   5   1         4
                42.18          2.26        2.4875    1   0   2         4
                42.81          1.88        2.4529    1   1   2         8
                44.63          1.11        2.3573    1   2   2         8
                44.71          3.11        2.3537    1   5   1         8
                48.32          5.39        2.1870    2   3   1         8
                50.96         12.99        2.0809    1   6   1         8
                54.71         36.38        1.9479    2   0   2         4
                55.23          1.66        1.9312    2   1   2         8
                56.13          2.93        1.9027    1   5   2         8
                56.75          6.69        1.8835    2   2   2         8
                57.93          1.17        1.8484    0   6   2         4
                58.01         17.01        1.8461    0   8   0         2
                58.82          1.45        1.8229    2   6   0         4
================================================================================
       XPOW Copyright 1993 Bob Downs, Ranjini Swaminathan and Kurt Bartelmehs
  For reference, see Downs et al. (1993) American Mineralogist 78, 1104-1107.