      Titanite
      Oberti R, Smith D C, Rossi G, Caucia F
      European Journal of Mineralogy 3 (1991) 777-792
      The crystal-chemistry of high-aluminium titanites
      Locality: Tyrol, Austria
      _database_code_amcsd 0006425
      CELL PARAMETERS:   7.0570  8.7070  6.5550   90.000  113.810   90.000
      SPACE GROUP: P2_1/a    
      X-RAY WAVELENGTH:     1.790290
      Cell Volume:    368.494
      Density (g/cm3):      3.518
      MAX. ABS. INTENSITY / VOLUME**2:      11.85548507    
      RIR:      1.573
      RIR based on corundum from Acta Crystallographica A38 (1982) 733-739
               2-THETA      INTENSITY    D-SPACING   H   K   L   Multiplicity
                20.88         22.63        4.9389    0   1   1         4
                23.73          1.35        4.3535    0   2   0         2
                32.07        100.00        3.2402   -2   1   1         4
                32.20          3.25        3.2282    2   0   0         2
                34.74         72.20        2.9985    0   0   2         2
                36.71          6.52        2.8425   -2   0   2         2
                40.04          1.16        2.6147   -1   2   2         4
                40.08         62.18        2.6125    0   3   1         4
                40.39         44.78        2.5931    2   2   0         4
                44.18          3.54        2.3801   -2   2   2         4
                44.46          4.26        2.3659    2   1   1         4
                46.11         17.90        2.2860    1   3   1         4
                46.48         11.25        2.2684   -3   1   1         4
                47.29          4.32        2.2318   -2   3   1         4
                48.56          2.25        2.1767    0   4   0         2
                50.23         10.09        2.1088   -1   1   3         4
                50.81          4.51        2.0866    1   2   2         4
                51.35         16.74        2.0660   -2   1   3         4
                51.44         10.20        2.0627    1   4   0         4
                53.72          2.04        1.9812   -3   2   2         4
                54.70          6.97        1.9483    0   1   3         4
                57.00          1.19        1.8759    2   3   1         4
                57.70          3.21        1.8551    2   0   2         2
                59.47          9.92        1.8048    2   4   0         4
================================================================================
       XPOW Copyright 1993 Bob Downs, Ranjini Swaminathan and Kurt Bartelmehs
  For reference, see Downs et al. (1993) American Mineralogist 78, 1104-1107.